Timestamp,TP9,AF7,AF8,TP10,Label
1746196965.60075,18.5254389975496,-47.8515625,-76.171875,-13.671875,Focusing
1746196965.6046562,8.684924422576614,-47.36328125,-72.265625,-24.4140625,Focusing
1746196965.6085625,5.169885828029521,-62.98828125,-27.34375,-41.9921875,Focusing
1746196965.6124687,8.115635728656855,-60.546875,-7.32421875,-43.45703125,Focusing
1746196965.616375,10.940261667993639,-46.875,-43.9453125,-12.20703125,Focusing
1746196965.6202812,5.626854996084802,-42.48046875,-57.6171875,-8.7890625,Focusing
1746196965.6241875,-9.742727257066122,-45.8984375,-12.20703125,-46.38671875,Focusing
1746196965.6280937,-28.587319081012197,-51.7578125,-35.15625,-55.6640625,Focusing
1746196965.630125,-41.17057101822657,-51.7578125,-65.91796875,-53.22265625,Focusing
1746196965.6340313,-42.36808284038108,-46.875,-46.38671875,-52.734375,Focusing
1746196965.6379375,2.966781204669985,-43.9453125,-28.80859375,-55.6640625,Focusing
1746196965.6418438,-13.766990062833543,-35.64453125,-58.10546875,-60.05859375,Focusing
1746196965.64575,-16.95963065704504,-27.83203125,-63.96484375,-68.84765625,Focusing
1746196965.6496563,-7.482933731558546,-24.4140625,-40.0390625,-69.3359375,Focusing
1746196965.6535625,5.657786829261227,-26.3671875,-51.7578125,-57.6171875,Focusing
1746196965.6574688,12.214673076484587,-28.3203125,-62.98828125,-48.33984375,Focusing
1746196965.661375,8.251439227535712,-26.85546875,-75.68359375,-39.0625,Focusing
1746196965.6652813,-1.8870838369709588,-27.34375,-70.3125,-36.1328125,Focusing
1746196965.6691875,-10.993971043945692,-21.97265625,-7.8125,-53.7109375,Focusing
1746196965.6730938,-15.848010017437076,-20.99609375,-24.4140625,-48.828125,Focusing
1746196965.675125,6.421024671332532,-16.11328125,-44.43359375,-32.2265625,Focusing
1746196965.6790311,-1.6091456741162773,-6.8359375,-21.484375,-33.203125,Focusing
1746196965.6829374,-3.723275362452142,-13.671875,-23.92578125,-35.15625,Focusing
1746196965.6868436,-1.1094285720819954,-19.53125,-34.66796875,-27.83203125,Focusing
1746196965.69075,1.701128079254417,-28.3203125,-39.55078125,-31.25,Focusing
1746196965.6946561,1.2558752650252387,-39.0625,-45.8984375,-43.45703125,Focusing
1746196965.6985624,-2.1307484544939967,-36.62109375,-29.296875,-54.19921875,Focusing
1746196965.7024686,-6.209043068772914,-37.109375,-50.29296875,-43.9453125,Focusing
1746196965.706375,-10.007249694813538,-42.96875,-53.22265625,-30.76171875,Focusing
1746196965.7102811,-13.434817636645462,-41.9921875,-12.20703125,-39.55078125,Focusing
1746196965.7141874,9.52098168229837,-39.55078125,-31.25,-33.203125,Focusing
1746196965.7180936,3.4502804809988277,-37.109375,-84.9609375,-16.11328125,Focusing
1746196965.721125,-0.677626662927608,-27.83203125,-81.54296875,-18.5546875,Focusing
1746196965.7250311,-2.517738197595449,-26.3671875,-50.29296875,-41.50390625,Focusing
1746196965.7289374,-2.693439129322954,-38.57421875,-82.51953125,-37.59765625,Focusing
1746196965.7328436,-2.34131581946896,-38.57421875,-38.0859375,-25.87890625,Focusing
1746196965.73675,-2.38075161130584,-35.64453125,-16.6015625,-25.390625,Focusing
1746196965.7406561,-3.287135350558472,-43.9453125,-36.62109375,-27.34375,Focusing
1746196965.7445624,-5.800398259734436,-41.9921875,-9.765625,-33.69140625,Focusing
1746196965.7484686,-10.81335519852206,-38.57421875,-12.20703125,-10.7421875,Focusing
1746196965.752375,-0.033801318375736855,-44.43359375,18.5546875,-0.9765625,Focusing
1746196965.7562811,-8.645226066745536,-42.48046875,49.8046875,-34.1796875,Focusing
1746196965.7601874,-8.38060327376327,-41.9921875,-2.9296875,-32.71484375,Focusing
1746196965.7640936,-0.26087486050570874,-45.41015625,-1.953125,-27.83203125,Focusing
1746196965.765125,8.609097158533558,-47.36328125,8.30078125,-31.73828125,Focusing
1746196965.7690313,10.516161895410207,-41.015625,4.8828125,-32.71484375,Focusing
1746196965.7729375,3.4847703021406318,-46.38671875,-33.203125,-30.76171875,Focusing
1746196965.7768438,-7.164581148239179,-54.6875,-31.25,-39.55078125,Focusing
1746196965.78075,-13.778341764741029,-55.6640625,8.30078125,-52.24609375,Focusing
1746196965.7846563,-13.150313212961322,-52.24609375,3.90625,-38.57421875,Focusing
1746196965.7885625,4.331042461176395,-54.19921875,-12.6953125,-18.06640625,Focusing
1746196965.7924688,-1.6828113182058928,-63.4765625,3.41796875,-16.11328125,Focusing
1746196965.796375,-3.9396115660192663,-58.10546875,34.1796875,-27.83203125,Focusing
1746196965.8002813,-2.0561120484305064,-50.78125,4.39453125,-23.4375,Focusing
1746196965.8041875,1.48118720926729,-46.875,-15.625,-12.20703125,Focusing
1746196965.8080938,3.25879852531952,-39.0625,-7.8125,-12.6953125,Focusing
1746196965.810125,1.4636639513008873,-39.0625,2.9296875,-26.3671875,Focusing
1746196965.8140314,-3.034450534324577,-39.0625,-21.97265625,-27.34375,Focusing
1746196965.8179376,-7.61487403183888,-36.62109375,-18.06640625,-24.90234375,Focusing
1746196965.8218439,-9.909857800150085,-35.15625,-9.765625,-29.296875,Focusing
1746196965.82575,6.64793158258297,-38.0859375,-19.04296875,-25.87890625,Focusing
1746196965.8296564,5.265084045311646,-37.59765625,-28.80859375,-19.53125,Focusing
1746196965.8335626,4.8413499461640015,-30.2734375,-30.2734375,-9.27734375,Focusing
1746196965.8374689,4.549294855119712,-28.80859375,-5.859375,-8.30078125,Focusing
1746196965.841375,3.19414574039898,-29.78515625,56.15234375,-32.71484375,Focusing
1746196965.8452814,-0.07907970798357411,-35.15625,24.90234375,-36.62109375,Focusing
1746196965.8491876,-4.994379901803562,-33.69140625,-20.99609375,-25.390625,Focusing
1746196965.8530939,-9.96393391496234,-42.48046875,-27.83203125,-33.69140625,Focusing
1746196965.856125,-13.343156286774892,-47.36328125,-41.9921875,-31.25,Focusing
1746196965.8600314,-14.899599284990067,-40.0390625,-51.26953125,-17.578125,Focusing
1746196965.8639376,0.5859809051510467,-35.64453125,-65.4296875,-18.5546875,Focusing
1746196965.8678439,-1.985471169375785,-28.80859375,-54.6875,-20.5078125,Focusing
1746196965.87175,0.635840819430598,-26.85546875,-51.7578125,-15.625,Focusing
1746196965.8756564,4.965847456230293,-26.85546875,-82.51953125,-5.859375,Focusing
1746196965.8795626,6.845399339134829,-27.34375,-55.17578125,2.9296875,Focusing
1746196965.8834689,4.736684639857913,-32.71484375,-11.23046875,-5.859375,Focusing
1746196965.887375,-0.304517871934479,-35.64453125,-18.06640625,-19.53125,Focusing
1746196965.8912814,-6.775787294349115,-29.296875,-50.78125,-2.44140625,Focusing
1746196965.8951876,-13.358228731762836,-29.78515625,-40.52734375,-1.953125,Focusing
1746196965.8990939,-17.45627029881959,-31.73828125,-5.37109375,-20.01953125,Focusing
1746196965.915125,0.06180239504896434,-35.64453125,-58.10546875,-14.6484375,Focusing
1746196965.9190311,-5.360677831373536,-36.1328125,-66.89453125,-8.30078125,Focusing
1746196965.9229374,-3.7427893246301878,-32.71484375,-2.44140625,-12.20703125,Focusing
1746196965.9268436,3.7173051882710197,-36.1328125,7.8125,-21.97265625,Focusing
1746196965.93075,10.244155883701353,-33.69140625,-18.5546875,-18.5546875,Focusing
1746196965.9346561,8.738901795449344,-28.80859375,-23.92578125,-12.6953125,Focusing
1746196965.9385624,-1.2534694032717013,-39.0625,-33.203125,-14.16015625,Focusing
1746196965.9424686,-12.263532417861697,-45.41015625,-46.38671875,-17.578125,Focusing
1746196965.946375,-16.05606099815251,-43.9453125,-38.57421875,-19.53125,Focusing
1746196965.9502811,-11.795957535898559,-51.7578125,-63.96484375,-7.8125,Focusing
1746196965.9541874,4.037562981786891,-41.9921875,-44.43359375,-5.859375,Focusing
1746196965.9580936,-5.926186417116497,-28.80859375,20.5078125,-24.4140625,Focusing
1746196965.962125,-7.159633342037836,-38.57421875,-14.6484375,-24.4140625,Focusing
1746196965.9660313,-0.5701236746540133,-43.9453125,-23.92578125,-23.92578125,Focusing
1746196965.9699376,6.272773431000104,-39.55078125,1.953125,-31.25,Focusing
1746196965.9738438,5.930452742843045,-41.015625,-8.7890625,-27.34375,Focusing
1746196965.97775,-1.8024968381116793,-42.48046875,-39.0625,-19.04296875,Focusing
1746196965.9816563,-10.28021297367576,-40.0390625,-39.0625,-15.13671875,Focusing
1746196965.9855626,-13.64365106381993,-39.55078125,-10.25390625,-24.4140625,Focusing
1746196965.9894688,-12.222279940703913,-38.57421875,-10.7421875,-44.43359375,Focusing
1746196965.993375,3.7938401357805986,-41.50390625,-55.6640625,-32.2265625,Focusing
1746196965.9972813,-5.289294640627631,-44.43359375,-31.25,-32.2265625,Focusing
1746196966.0011876,-5.724354100777333,-45.41015625,-10.7421875,-40.0390625,Focusing
1746196966.0050938,2.0332926423690765,-42.48046875,-66.89453125,-37.109375,Focusing
1746196966.005125,10.209266175111708,-41.50390625,-73.2421875,-20.5078125,Focusing
1746196966.0090313,9.952644764867685,-40.0390625,-39.0625,-11.23046875,Focusing
1746196966.0129375,-0.48964100208756633,-33.69140625,-1.46484375,-21.484375,Focusing
1746196966.0168438,-13.880798376471219,-37.59765625,-29.296875,-21.484375,Focusing
1746196966.02075,-20.848257257830866,-40.0390625,-70.80078125,-17.08984375,Focusing
1746196966.0246563,-18.388393611224274,-32.2265625,-41.50390625,-17.578125,Focusing
1746196966.0285625,1.1682261709609918,-38.57421875,-15.13671875,-35.64453125,Focusing
1746196966.0324688,-5.729825028446498,-44.43359375,-36.62109375,-38.0859375,Focusing
1746196966.036375,-6.419886680042509,-35.15625,-65.4296875,-10.7421875,Focusing
1746196966.0402813,-1.9260780915371072,-30.76171875,-33.69140625,-0.48828125,Focusing
1746196966.0441875,3.9167578179756646,-28.3203125,22.4609375,-37.59765625,Focusing
1746196966.0480938,6.837840786703254,-33.69140625,-0.9765625,-33.203125,Focusing
1746196966.050125,4.627394223146624,-46.38671875,0.0,-23.4375,Focusing
1746196966.0540311,-1.4232008256643383,-41.9921875,4.39453125,-34.66796875,Focusing
1746196966.0579374,-7.639511314492054,-35.15625,-15.625,-25.390625,Focusing
1746196966.0618436,-11.266216487585936,-41.9921875,-44.43359375,-18.06640625,Focusing
1746196966.06575,3.1181769520659373,-50.29296875,-38.57421875,-17.578125,Focusing
1746196966.0696561,-3.2256914165321575,-53.7109375,-34.1796875,-20.5078125,Focusing
1746196966.0735624,-4.508714274348563,-47.36328125,-41.9921875,-17.578125,Focusing
1746196966.0774686,-1.5573570123535774,-40.0390625,-43.9453125,-3.90625,Focusing
1746196966.081375,2.3410464643346387,-35.15625,-4.39453125,0.48828125,Focusing
1746196966.0852811,4.0729634232174305,-32.71484375,43.45703125,-23.92578125,Focusing
1746196966.0891874,2.368154374702101,-40.52734375,13.18359375,-24.90234375,Focusing
1746196966.0930936,-2.2134309263118297,-48.828125,-10.25390625,-5.37109375,Focusing
1746196966.095125,-7.843332806074159,-36.1328125,5.859375,0.48828125,Focusing
1746196966.0990312,-11.913071239357762,-30.2734375,9.27734375,-27.34375,Focusing
1746196966.1029375,3.6788412481305954,-34.66796875,-39.55078125,-42.48046875,Focusing
1746196966.1068437,-4.564457936486207,-39.55078125,-34.66796875,-34.1796875,Focusing
1746196966.11075,-6.506548973884577,-41.50390625,-36.1328125,-28.3203125,Focusing
1746196966.1146562,-1.989683912437684,-34.1796875,-63.96484375,-31.73828125,Focusing
1746196966.1185625,4.547979104804185,-35.64453125,-57.6171875,-36.1328125,Focusing
1746196966.1224687,7.169454175741066,-38.0859375,-90.8203125,-20.99609375,Focusing
1746196966.126375,3.0635309591686593,-35.15625,-55.17578125,-22.94921875,Focusing
1746196966.1302812,-5.080572282323814,-33.69140625,7.8125,-45.41015625,Focusing
1746196966.1341875,-11.570570526285067,-36.62109375,-46.38671875,-41.015625,Focusing
1746196966.1380937,-13.16636953032635,-37.59765625,-52.734375,-33.69140625,Focusing
1746196966.140125,-0.4451188719848318,-34.66796875,-24.90234375,-42.96875,Focusing
1746196966.1440313,-4.352469329735747,-40.0390625,-42.96875,-48.828125,Focusing
1746196966.1479375,-2.514736960022688,-42.96875,-74.21875,-41.50390625,Focusing
1746196966.1518438,2.4549665156483442,-41.9921875,-59.5703125,-32.2265625,Focusing
1746196966.15575,5.681643662419418,-34.66796875,-44.921875,-32.2265625,Focusing
1746196966.1596563,4.0698551452681215,-27.34375,-67.3828125,-38.0859375,Focusing
1746196966.1635625,-1.1422658748246164,-28.80859375,-74.21875,-35.64453125,Focusing
1746196966.1674688,-5.94439087671396,-31.73828125,-50.78125,-29.296875,Focusing
1746196966.171375,-7.98013705605959,-34.66796875,-19.04296875,-32.2265625,Focusing
1746196966.1752813,-8.382318063443165,-38.0859375,-36.1328125,-33.69140625,Focusing
1746196966.1791875,0.7203582750889481,-45.8984375,-62.01171875,-30.76171875,Focusing
1746196966.1830938,-6.457091863091023,-49.8046875,-48.828125,-29.296875,Focusing
1746196966.185125,-9.789302160042652,-44.43359375,-13.671875,-36.1328125,Focusing
1746196966.1890314,-8.761343272775235,-46.38671875,-30.2734375,-30.76171875,Focusing
1746196966.1929376,-4.737908841298442,-46.875,-41.015625,-30.2734375,Focusing
1746196966.1968439,0.48159820570976564,-45.8984375,-37.109375,-40.52734375,Focusing
1746196966.20075,5.4352173887924735,-45.8984375,-40.52734375,-25.87890625,Focusing
1746196966.2046564,8.627851115249356,-41.9921875,-60.05859375,-14.16015625,Focusing
1746196966.2085626,8.364803849783371,-47.8515625,-48.828125,-12.20703125,Focusing
1746196966.2124689,4.1190980088408296,-46.38671875,-22.4609375,-20.5078125,Focusing
1746196966.216375,-0.25814740983354056,-50.29296875,-18.5546875,-33.69140625,Focusing
1746196966.2202814,-6.346379030804684,-57.12890625,-37.109375,-34.66796875,Focusing
1746196966.2241876,-6.233759337196162,-52.24609375,-80.078125,-7.8125,Focusing
1746196966.2280939,-0.9364263341636558,-52.24609375,-60.05859375,-6.34765625,Focusing
1746196966.230125,4.874164198700541,-58.59375,-32.71484375,-32.2265625,Focusing
1746196966.2340312,6.393732818779,-53.22265625,-63.4765625,-21.484375,Focusing
1746196966.2379375,2.524229595505929,-51.26953125,-58.10546875,-17.08984375,Focusing
1746196966.2418437,-3.3769017954196343,-56.15234375,-20.5078125,-24.4140625,Focusing
1746196966.24575,-7.000334698539362,-56.640625,-34.1796875,-16.11328125,Focusing
1746196966.2496562,-7.28580147250738,-54.6875,-92.7734375,-14.16015625,Focusing
1746196966.2535625,6.967020107200838,-54.6875,-82.51953125,-23.4375,Focusing
1746196966.2574687,1.1659989711496195,-58.59375,-14.16015625,-43.45703125,Focusing
1746196966.261375,1.3608950460319278,-51.7578125,-28.3203125,-40.0390625,Focusing
1746196966.2652812,5.155555113234712,-56.15234375,-62.5,-25.390625,Focusing
1746196966.2691875,6.669476115996204,-60.05859375,-45.41015625,-23.4375,Focusing
1746196966.2730937,1.9453620771984106,-57.12890625,-30.2734375,-38.57421875,Focusing
1746196966.290125,-7.1566293912999726,-57.12890625,-57.6171875,-40.52734375,Focusing
1746196966.2940311,-15.118000329373757,-57.12890625,-47.8515625,-31.73828125,Focusing
1746196966.2979374,-18.767053507792383,-53.7109375,-34.66796875,-32.2265625,Focusing
1746196966.3018436,-19.252319403537115,-54.19921875,-36.1328125,-38.0859375,Focusing
1746196966.30575,1.1520272656015749,-58.59375,-46.38671875,-43.9453125,Focusing
1746196966.3096561,-8.07328629441733,-58.10546875,-73.73046875,-32.71484375,Focusing
1746196966.3135624,-8.866725153741882,-57.12890625,-33.203125,-39.55078125,Focusing
1746196966.3174686,-3.4868055101974136,-57.6171875,3.90625,-52.734375,Focusing
1746196966.321375,2.430051244422998,-57.12890625,-35.15625,-40.0390625,Focusing
1746196966.3252811,4.650660615572022,-52.734375,-47.36328125,-31.25,Focusing
1746196966.3291874,3.003474167719972,-44.43359375,-8.30078125,-42.96875,Focusing
1746196966.3330936,-0.33900092092463296,-41.015625,-30.2734375,-30.2734375,Focusing
1746196966.335125,-4.266517159401886,-45.8984375,-55.6640625,-11.23046875,Focusing
1746196966.3390312,-8.846828800243443,-57.6171875,-22.94921875,-17.578125,Focusing
1746196966.3429375,-4.476920225163326,-63.4765625,32.71484375,-47.8515625,Focusing
1746196966.3468437,-14.208526653967482,-60.546875,15.13671875,-58.10546875,Focusing
1746196966.35075,-12.836648733551698,-61.03515625,-5.37109375,-40.52734375,Focusing
1746196966.3546562,-3.2548269312589184,-62.01171875,21.484375,-27.34375,Focusing
1746196966.3585625,6.633748795844667,-59.08203125,55.17578125,-22.94921875,Focusing
1746196966.3624687,10.22889987754057,-49.8046875,36.1328125,-20.99609375,Focusing
1746196966.366375,6.798893123655375,-45.41015625,-12.6953125,-12.20703125,Focusing
1746196966.3702812,0.556531655383381,-46.38671875,-31.73828125,-0.48828125,Focusing
1746196966.3741875,-4.30687889104621,-47.8515625,14.6484375,-23.4375,Focusing
1746196966.3780937,-6.7609739107877544,-46.875,-10.25390625,-29.78515625,Focusing
1746196966.382125,8.089629029439962,-41.015625,-50.29296875,-17.578125,Focusing
1746196966.3860312,2.0825101255968406,-38.0859375,-21.484375,-19.53125,Focusing
1746196966.3899374,0.40797789469773704,-33.203125,-2.44140625,-16.11328125,Focusing
1746196966.3938437,2.4716677447172657,-38.57421875,-6.34765625,-14.16015625,Focusing
1746196966.39775,4.780117955194143,-39.0625,-25.390625,-12.20703125,Focusing
1746196966.4016562,3.6245539689131903,-44.921875,-37.109375,-15.625,Focusing
1746196966.4055624,-2.234657965747587,-53.22265625,-28.80859375,-24.4140625,Focusing
1746196966.4094687,-10.831525267249944,-49.31640625,-27.34375,-28.80859375,Focusing
1746196966.413375,-18.353405821471057,-41.50390625,-52.734375,-20.01953125,Focusing
1746196966.4172812,-21.466014305191877,-39.0625,-31.25,-30.76171875,Focusing
1746196966.4211874,-1.241471122627928,-41.015625,-40.52734375,-37.109375,Focusing
1746196966.4250937,-7.153846316946712,-35.15625,-80.078125,-19.53125,Focusing
1746196966.426125,-5.192787678452731,-35.64453125,-36.1328125,-10.7421875,Focusing
1746196966.4300313,2.722483260223143,-38.0859375,2.9296875,-18.5546875,Focusing
1746196966.4339375,9.798741687731976,-36.1328125,-15.13671875,-14.6484375,Focusing
1746196966.4378438,9.520350094573658,-41.50390625,-53.7109375,-8.30078125,Focusing
1746196966.44175,1.2587501412808422,-51.26953125,-71.77734375,-9.27734375,Focusing
1746196966.4456563,-9.020557838657083,-55.6640625,-31.25,-12.20703125,Focusing
1746196966.4495625,-14.275442933274554,-57.12890625,-21.97265625,-22.4609375,Focusing
1746196966.4534688,-12.601764375235867,-58.10546875,-42.48046875,-20.5078125,Focusing
1746196966.457375,9.164547484327002,-56.640625,-19.53125,-9.27734375,Focusing
1746196966.4612813,1.0728000500581203,-57.6171875,28.3203125,-30.76171875,Focusing
1746196966.4651875,-2.1258022304735107,-55.6640625,-1.46484375,-38.57421875,Focusing
1746196966.4690938,-0.961014472533563,-45.41015625,-26.3671875,-19.53125,Focusing
1746196966.470125,1.7204000626136633,-45.41015625,-9.27734375,-20.5078125,Focusing
1746196966.4740312,2.890253155861359,-50.78125,-17.578125,-40.0390625,Focusing
1746196966.4779375,0.5359781473365501,-50.29296875,-34.1796875,-38.0859375,Focusing
1746196966.4818437,-5.813351313955522,-54.6875,-19.53125,-29.78515625,Focusing
1746196966.48575,-14.443130300286299,-63.96484375,2.9296875,-32.2265625,Focusing
1746196966.4896562,-21.585046860983127,-66.89453125,-19.04296875,-20.99609375,Focusing
1746196966.4935625,7.913112874257749,-61.5234375,-51.26953125,-23.4375,Focusing
1746196966.4974687,2.483543006329043,-58.10546875,-53.7109375,-17.578125,Focusing
1746196966.501375,1.0504383697996644,-56.640625,0.0,-13.671875,Focusing
1746196966.5052812,2.820260550550884,-56.15234375,30.2734375,-33.69140625,Focusing
1746196966.5091875,4.549041780793203,-57.6171875,0.0,-19.04296875,Focusing
1746196966.5130937,2.942712105206809,-55.6640625,-27.83203125,-2.9296875,Focusing
1746196966.515125,-2.865055544195201,-53.22265625,4.8828125,-24.4140625,Focusing
1746196966.5190313,-10.803730966648274,-59.08203125,1.953125,-33.203125,Focusing
1746196966.5229375,-17.512505555402484,-57.12890625,-26.85546875,-18.06640625,Focusing
1746196966.5268438,-20.4566293159926,-61.5234375,0.48828125,-15.13671875,Focusing
1746196966.53075,2.9866834100402713,-65.91796875,14.16015625,-29.78515625,Focusing
1746196966.5346563,-7.048658139854737,-61.5234375,-30.2734375,-40.0390625,Focusing
1746196966.5385625,-8.360941787659485,-57.6171875,-32.71484375,-33.69140625,Focusing
1746196966.5424688,-2.4936983415160086,-54.6875,-35.15625,-9.765625,Focusing
1746196966.546375,4.700297150236267,-52.734375,6.8359375,-31.25,Focusing
1746196966.5502813,7.535008197807514,-46.38671875,4.8828125,-43.45703125,Focusing
1746196966.5541875,4.109915169020994,-41.015625,-34.66796875,-20.99609375,Focusing
1746196966.5580938,-3.293564316500067,-36.62109375,-16.11328125,-26.3671875,Focusing
1746196966.560125,-10.785615321953642,-39.0625,-9.27734375,-39.0625,Focusing
1746196966.5640314,-15.68010001722547,-47.8515625,-27.34375,-45.41015625,Focusing
1746196966.5679376,9.254980393104802,-46.38671875,-43.9453125,-39.0625,Focusing
1746196966.5718439,-0.5828504724298398,-40.52734375,-37.109375,-35.15625,Focusing
1746196966.57575,-5.276456287176515,-55.17578125,-55.6640625,-37.109375,Focusing
1746196966.5796564,-3.756313992428602,-63.96484375,-50.78125,-36.1328125,Focusing
1746196966.5835626,0.9745779036029205,-56.640625,-47.8515625,-14.16015625,Focusing
1746196966.5874689,3.9719836863745996,-53.22265625,-30.2734375,-10.25390625,Focusing
1746196966.591375,1.856909864206301,-49.31640625,-3.41796875,-29.78515625,Focusing
1746196966.5952814,-4.892619430700776,-46.875,-26.85546875,-31.25,Focusing
1746196966.5991876,-12.58347164287521,-50.78125,-55.17578125,-17.578125,Focusing
1746196966.6030939,-17.431319911434002,-55.17578125,-26.3671875,-21.97265625,Focusing
1746196966.605125,-1.0178599691078176,-53.7109375,-16.6015625,-39.55078125,Focusing
1746196966.6090312,-11.581271439814259,-50.29296875,-65.91796875,-33.203125,Focusing
1746196966.6129375,-11.080966939512635,-46.38671875,-41.9921875,-36.1328125,Focusing
1746196966.6168437,-0.47885628996198193,-47.8515625,-12.20703125,-41.9921875,Focusing
1746196966.62075,10.601786634521403,-51.7578125,-56.15234375,-34.1796875,Focusing
1746196966.6246562,11.596228915762083,-40.52734375,-88.37890625,-11.71875,Focusing
1746196966.6285625,1.2610634670514855,-37.109375,-48.828125,0.9765625,Focusing
1746196966.6324687,-10.60637168440573,-36.62109375,-13.671875,-26.85546875,Focusing
1746196966.636375,-13.727201229389237,-28.3203125,-28.80859375,-41.9921875,Focusing
1746196966.6402812,-8.465670144966836,-32.2265625,-55.17578125,-33.203125,Focusing
1746196966.6441875,3.800470987740468,-34.66796875,-25.87890625,-24.90234375,Focusing
1746196966.6480937,-7.05801136928298,-37.109375,21.97265625,-38.0859375,Focusing
1746196966.668125,-8.103936928420381,-39.0625,-16.11328125,-39.55078125,Focusing
1746196966.6720312,-0.9886952314144395,-36.62109375,-5.859375,-34.1796875,Focusing
1746196966.6759374,5.962416637444235,-39.55078125,21.484375,-33.69140625,Focusing
1746196966.6798437,5.266404373777988,-40.0390625,3.41796875,-27.34375,Focusing
1746196966.68375,-2.4783288534873265,-36.1328125,-1.46484375,-15.13671875,Focusing
1746196966.6876562,-9.92383516338684,-38.57421875,6.8359375,-10.7421875,Focusing
1746196966.6915624,-12.009692779337328,-43.45703125,28.80859375,-29.78515625,Focusing
1746196966.6954687,-10.981213877563974,-47.36328125,33.69140625,-36.62109375,Focusing
1746196966.699375,13.330846235567265,-47.8515625,11.71875,-40.0390625,Focusing
1746196966.7032812,-2.3476706304059576,-52.24609375,-23.4375,-33.203125,Focusing
1746196966.7071874,-11.299279305847335,-57.12890625,0.0,-33.203125,Focusing
1746196966.7110937,-11.22799362619216,-50.78125,45.41015625,-52.734375,Focusing
1746196966.710125,-4.836738585868034,-44.43359375,-0.48828125,-49.8046875,Focusing
1746196966.7140312,2.0442129478194033,-46.38671875,-10.25390625,-48.33984375,Focusing
1746196966.7179375,4.420921863556117,-46.38671875,3.90625,-48.828125,Focusing
1746196966.7218437,1.1086324272990566,-40.52734375,-5.859375,-41.50390625,Focusing
1746196966.72575,-5.990486496630069,-36.1328125,-10.25390625,-40.0390625,Focusing
1746196966.7296562,-14.778861685007797,-31.25,-6.8359375,-39.0625,Focusing
1746196966.7335625,-4.622287085910656,-34.66796875,20.99609375,-38.57421875,Focusing
1746196966.7374687,-11.509695251599311,-34.1796875,35.15625,-37.109375,Focusing
1746196966.741375,-8.478778280261182,-31.25,-6.8359375,-20.01953125,Focusing
1746196966.7452812,2.1526540843874358,-29.78515625,-26.85546875,-11.23046875,Focusing
1746196966.7491875,12.184754379019992,-25.87890625,29.296875,-30.2734375,Focusing
1746196966.7530937,13.725459651025531,-41.015625,-20.99609375,-33.69140625,Focusing
1746196966.757125,5.294028578926358,-53.22265625,-60.546875,-29.78515625,Focusing
1746196966.7610312,-7.121184139851934,-54.19921875,-41.9921875,-25.87890625,Focusing
1746196966.7649374,-14.923413396275123,-48.33984375,-23.4375,-23.92578125,Focusing
1746196966.7688437,-13.630514384382138,-37.109375,0.0,-26.85546875,Focusing
1746196966.77275,9.576422623447002,-39.0625,-12.6953125,-20.99609375,Focusing
1746196966.7766562,-2.3822268820335495,-50.29296875,-20.5078125,-25.390625,Focusing
1746196966.7805624,-8.452496404226679,-50.78125,-44.921875,-28.3203125,Focusing
1746196966.7844687,-6.212429902309523,-49.31640625,-35.64453125,-33.69140625,Focusing
1746196966.788375,-0.15044452246482365,-54.6875,-55.17578125,-26.85546875,Focusing
1746196966.7922812,2.6411932450232882,-60.05859375,-37.59765625,-12.6953125,Focusing
1746196966.7961874,-0.5770107257328334,-59.5703125,13.671875,-30.76171875,Focusing
1746196966.8000937,-6.258821977801176,-56.640625,-27.34375,-25.87890625,Focusing
1746196966.800125,-9.543257991581811,-55.6640625,-17.578125,-18.06640625,Focusing
1746196966.8040311,-9.577711170520075,-65.4296875,21.484375,-25.390625,Focusing
1746196966.8079374,0.6628586242451249,-69.82421875,20.5078125,-13.18359375,Focusing
1746196966.8118436,-3.7597246857209967,-67.87109375,-21.97265625,-12.6953125,Focusing
1746196966.81575,-2.6022365525843725,-63.96484375,-42.48046875,-14.16015625,Focusing
1746196966.8196561,3.0380186099750475,-53.22265625,-27.34375,-11.71875,Focusing
1746196966.8235624,8.02887999028772,-46.38671875,-21.97265625,-10.25390625,Focusing
1746196966.8274686,7.01699152939711,-45.8984375,-39.0625,-6.34765625,Focusing
1746196966.831375,-0.6039695876314397,-44.921875,-32.71484375,-10.7421875,Focusing
1746196966.8352811,-9.546182425849139,-52.24609375,-6.34765625,-27.83203125,Focusing
1746196966.8391874,-13.519476636025018,-62.01171875,-28.3203125,-28.80859375,Focusing
1746196966.8430936,-11.346866782535713,-61.03515625,-82.03125,-10.7421875,Focusing
1746196966.845125,10.061447005632786,-57.12890625,-53.22265625,-4.39453125,Focusing
1746196966.8490312,3.7984139129845857,-51.7578125,0.9765625,-14.6484375,Focusing
1746196966.8529375,-0.7872570131123808,-57.6171875,-50.78125,-15.625,Focusing
1746196966.8568437,-2.628066449844738,-65.4296875,-45.41015625,-28.3203125,Focusing
1746196966.86075,-2.496268139520481,-59.5703125,-26.3671875,-34.66796875,Focusing
1746196966.8646562,-2.2458656298298934,-47.8515625,-41.015625,-23.92578125,Focusing
1746196966.8685625,-3.0587613610983624,-41.015625,-21.484375,-19.53125,Focusing
1746196966.8724687,-4.691730748138625,-45.41015625,-52.734375,-11.71875,Focusing
1746196966.876375,-6.812069700922848,-47.36328125,-38.57421875,-7.8125,Focusing
1746196966.8802812,-10.1216796451519,-51.7578125,37.59765625,-24.90234375,Focusing
1746196966.8841875,8.706594214639622,-60.546875,-1.46484375,-25.390625,Focusing
1746196966.8880937,0.5136384861344396,-62.5,-25.390625,-18.5546875,Focusing
1746196966.892125,-4.6979684840259495,-66.89453125,2.44140625,-18.06640625,Focusing
1746196966.8960311,-4.417568019016031,-64.453125,-9.27734375,-11.71875,Focusing
1746196966.8999374,-0.6923612250447491,-54.19921875,-32.71484375,-12.20703125,Focusing
1746196966.9038436,1.541038401480705,-48.828125,-32.2265625,-16.11328125,Focusing
1746196966.90775,-0.6032791522030294,-51.26953125,-35.15625,-24.90234375,Focusing
1746196966.9116561,-5.122159609892819,-54.6875,-57.12890625,-28.3203125,Focusing
1746196966.9155624,-7.962330232503895,-51.26953125,-68.84765625,-17.578125,Focusing
1746196966.9194686,-8.171055999569049,-48.33984375,-71.77734375,-8.7890625,Focusing
1746196966.923375,10.732961139115218,-53.7109375,-23.92578125,-35.15625,Focusing
1746196966.9272811,1.0670442321221856,-58.10546875,-56.15234375,-41.50390625,Focusing
1746196966.9311874,-4.369749142136385,-53.7109375,-79.1015625,-20.99609375,Focusing
1746196966.9350936,-4.746435545704799,-51.7578125,-37.109375,-29.78515625,Focusing
1746196966.935125,-1.9655638780351268,-51.26953125,-27.83203125,-44.921875,Focusing
1746196966.9390314,0.6587242688812438,-52.24609375,-67.3828125,-40.0390625,Focusing
1746196966.9429376,0.48722926594268756,-52.734375,-83.0078125,-27.83203125,Focusing
1746196966.9468439,-3.0077426759405625,-48.33984375,-38.0859375,-21.97265625,Focusing
1746196966.95075,-8.687985787161978,-41.50390625,-31.25,-16.6015625,Focusing
1746196966.9546564,-15.15161425507894,-42.48046875,-52.24609375,-21.484375,Focusing
1746196966.9585626,3.2234304483482816,-54.19921875,-66.89453125,-29.296875,Focusing
1746196966.9624689,-6.177571745154481,-58.10546875,-65.91796875,-21.484375,Focusing
1746196966.966375,-9.843116753320245,-52.24609375,-29.296875,-41.50390625,Focusing
1746196966.9702814,-6.945853719527278,-52.24609375,-45.8984375,-47.8515625,Focusing
1746196966.9741876,-1.0807890026843268,-57.6171875,-48.828125,-32.71484375,Focusing
1746196966.9780939,2.9686708498003185,-59.5703125,-4.39453125,-43.45703125,Focusing
1746196966.981125,3.29038978385789,-45.41015625,-14.16015625,-41.015625,Focusing
1746196966.9850314,1.5099000751680052,-36.1328125,-34.66796875,-23.4375,Focusing
1746196966.9889376,-0.3388045082840705,-42.48046875,-36.1328125,-21.484375,Focusing
1746196966.9928439,-2.281265229378988,-44.921875,-25.390625,-29.78515625,Focusing
1746196966.99675,4.086016993455615,-54.19921875,-33.69140625,-28.80859375,Focusing
1746196967.0006564,-1.4271815001898176,-57.6171875,-84.9609375,-15.13671875,Focusing
1746196967.0045626,-2.598789062428608,-55.17578125,-70.3125,-5.859375,Focusing
1746196967.0084689,0.6053504702625077,-49.8046875,-7.8125,-17.578125,Focusing
1746196967.012375,4.82125627965128,-47.8515625,-31.73828125,-30.76171875,Focusing
1746196967.0162814,5.343127658195712,-45.41015625,-99.609375,-19.53125,Focusing
1746196967.0201876,0.20367423130571183,-46.875,-99.609375,-10.25390625,Focusing
1746196967.0240939,-7.459907389788896,-48.828125,-24.90234375,-32.2265625,Focusing
1746196967.040125,-12.288617256118116,-41.015625,-33.69140625,-25.87890625,Focusing
1746196967.0440311,-12.49057028839708,-45.41015625,-48.33984375,-14.6484375,Focusing
1746196967.0479374,8.362044391872715,-47.36328125,-21.97265625,-32.2265625,Focusing
1746196967.0518436,0.8227385888856134,-44.43359375,-27.34375,-35.15625,Focusing
1746196967.05575,-1.883077484849636,-47.8515625,-63.96484375,-28.3203125,Focusing
1746196967.0596561,-0.9446384381131594,-47.8515625,-79.1015625,-11.71875,Focusing
1746196967.0635624,0.1156841664461723,-47.36328125,-45.41015625,-7.8125,Focusing
1746196967.0674686,-0.9475355585438336,-52.24609375,-25.390625,-32.2265625,Focusing
1746196967.071375,-3.4927945937609337,-47.36328125,-20.01953125,-35.64453125,Focusing
1746196967.0752811,-6.163490003080909,-36.1328125,-22.94921875,-13.671875,Focusing
1746196967.0791874,-9.487599858383192,-39.55078125,-1.953125,-11.23046875,Focusing
1746196967.0830936,-14.25622416400033,-48.33984375,19.04296875,-33.203125,Focusing
1746196967.085125,9.558676975687959,-39.0625,-20.5078125,-27.83203125,Focusing
1746196967.0890312,5.4579108286475275,-39.0625,-30.2734375,-25.87890625,Focusing
1746196967.0929375,2.7385111893446634,-42.48046875,-19.04296875,-28.80859375,Focusing
1746196967.0968437,1.135896461731349,-35.15625,-10.25390625,-32.2265625,Focusing
1746196967.10075,-0.31980341213851204,-29.78515625,-34.66796875,-25.390625,Focusing
1746196967.1046562,-2.3615743182445357,-27.83203125,-32.71484375,-23.4375,Focusing
1746196967.1085625,-4.888062369012388,-25.390625,6.34765625,-31.25,Focusing
1746196967.1124687,-7.48905872927952,-27.83203125,9.765625,-31.73828125,Focusing
1746196967.116375,-10.473200839735298,-37.59765625,-28.80859375,-18.06640625,Focusing
1746196967.1202812,-14.333693648055231,-44.921875,-20.5078125,-10.7421875,Focusing
1746196967.1241875,1.2379671770886915,-35.64453125,37.109375,-23.92578125,Focusing
1746196967.1280937,-3.7815291092543077,-33.203125,23.4375,-41.015625,Focusing
1746196967.130125,-4.055681747708135,-33.203125,-11.71875,-27.34375,Focusing
1746196967.1340313,-0.9556369929019155,-35.15625,3.90625,-14.16015625,Focusing
1746196967.1379375,2.2183132209993772,-36.62109375,41.9921875,-29.78515625,Focusing
1746196967.1418438,2.9405241839876766,-32.71484375,9.27734375,-25.87890625,Focusing
1746196967.14575,1.074886516406039,-30.76171875,-3.41796875,-20.01953125,Focusing
1746196967.1496563,-1.8490418008338168,-35.64453125,3.90625,-21.97265625,Focusing
1746196967.1535625,-4.636079974884538,-41.015625,-15.625,-20.99609375,Focusing
1746196967.1574688,-7.092104825722259,-30.76171875,-12.6953125,-18.5546875,Focusing
1746196967.161375,4.991644681695377,-35.64453125,-46.875,-14.16015625,Focusing
1746196967.1652813,-5.778966609287295,-50.78125,-28.3203125,-30.2734375,Focusing
1746196967.1691875,-9.551311834663977,-45.41015625,39.0625,-48.33984375,Focusing
1746196967.1730938,-6.167745100986281,-40.52734375,2.9296875,-27.34375,Focusing
1746196967.176125,0.05408570693893466,-35.15625,-26.3671875,-20.99609375,Focusing
1746196967.1800313,4.0846893224753416,-34.66796875,-16.11328125,-31.73828125,Focusing
1746196967.1839375,3.7051007938299563,-36.1328125,-20.01953125,-26.3671875,Focusing
1746196967.1878438,-0.08110548946659435,-32.2265625,-46.38671875,-20.01953125,Focusing
1746196967.19175,-5.115567796779928,-34.66796875,-52.734375,-22.94921875,Focusing
1746196967.1956563,-9.665221463102185,-39.0625,-27.34375,-24.90234375,Focusing
1746196967.1995625,4.617601593349974,-38.0859375,-9.27734375,-23.4375,Focusing
1746196967.2034688,1.071358285857201,-41.015625,-27.83203125,-18.06640625,Focusing
1746196967.207375,1.6973969265088726,-36.62109375,-22.4609375,-9.27734375,Focusing
1746196967.2112813,4.724919439144244,-36.62109375,15.625,-25.390625,Focusing
1746196967.2151875,6.542412180565847,-47.8515625,-20.99609375,-30.76171875,Focusing
1746196967.2190938,4.224264494998394,-50.29296875,-21.484375,-20.99609375,Focusing
1746196967.223125,-2.4125927011438364,-41.015625,-5.859375,-20.5078125,Focusing
1746196967.2270312,-10.658816401268027,-38.0859375,-4.39453125,-29.296875,Focusing
1746196967.2309375,-16.88768710978502,-41.50390625,10.25390625,-27.83203125,Focusing
1746196967.2348437,-18.963241257932474,-46.875,-3.90625,-13.18359375,Focusing
1746196967.23875,10.239272954308504,-45.41015625,-17.08984375,-17.578125,Focusing
1746196967.2426562,3.709454181934433,-34.66796875,-20.01953125,-8.30078125,Focusing
1746196967.2465625,1.0897822936609458,-38.57421875,-6.8359375,-17.08984375,Focusing
1746196967.2504687,1.8396381392783354,-47.36328125,-36.1328125,-23.4375,Focusing
1746196967.254375,3.031394521107984,-49.31640625,-21.97265625,-11.71875,Focusing
1746196967.2582812,1.5471567560392856,-60.546875,20.01953125,-31.25,Focusing
1746196967.2621875,-3.5929483041571473,-65.91796875,-40.52734375,-21.97265625,Focusing
1746196967.2660937,-10.658955284365717,-54.6875,-53.22265625,-19.04296875,Focusing
1746196967.265125,-17.036986229899398,-52.734375,-14.6484375,-33.203125,Focusing
1746196967.2690313,-21.283256079241383,-53.7109375,-5.37109375,-31.25,Focusing
1746196967.2729375,0.6183007224545065,-56.640625,-28.80859375,-21.97265625,Focusing
1746196967.2768438,-8.528971518168618,-56.15234375,-47.36328125,-21.97265625,Focusing
1746196967.28075,-9.319231964710994,-54.19921875,-45.41015625,-26.85546875,Focusing
1746196967.2846563,-2.073097394289249,-56.15234375,-35.15625,-30.2734375,Focusing
1746196967.2885625,6.371150534929427,-52.24609375,-40.0390625,-19.53125,Focusing
1746196967.2924688,8.303144201097808,-46.38671875,-62.5,2.9296875,Focusing
1746196967.296375,2.177033132029109,-48.828125,-8.7890625,-16.6015625,Focusing
1746196967.3002813,-6.1984771529395175,-52.24609375,18.5546875,-41.50390625,Focusing
1746196967.3041875,-9.960536564175555,-49.31640625,-29.296875,-27.83203125,Focusing
1746196967.3080938,-7.944269490966647,-45.8984375,-27.34375,-17.578125,Focusing
1746196967.310125,4.172336487638617,-44.921875,-21.484375,-16.11328125,Focusing
1746196967.3140314,-1.847476695167444,-47.8515625,-47.36328125,-19.04296875,Focusing
1746196967.3179376,-0.3317723225903393,-41.50390625,-57.12890625,-19.53125,Focusing
1746196967.3218439,6.035015112513648,-37.59765625,-35.64453125,-30.2734375,Focusing
1746196967.32575,10.28326239794032,-37.109375,-48.828125,-25.87890625,Focusing
1746196967.3296564,6.7168028196191045,-33.69140625,-56.15234375,-13.18359375,Focusing
1746196967.3335626,-4.045636272780655,-33.203125,-52.734375,-11.71875,Focusing
1746196967.3374689,-15.533382213041648,-34.1796875,-30.2734375,-24.4140625,Focusing
1746196967.341375,-21.585360798343018,-39.0625,-2.9296875,-48.828125,Focusing
1746196967.3452814,-21.425417720245918,-37.109375,-4.8828125,-44.921875,Focusing
1746196967.3491876,5.112863145428605,-30.76171875,-56.640625,-16.6015625,Focusing
1746196967.3530939,-4.1208494353304275,-25.87890625,-29.78515625,-18.5546875,Focusing
1746196967.356125,-6.085868165391034,-35.64453125,22.94921875,-48.33984375,Focusing
1746196967.3600314,-1.530588912281317,-44.43359375,-34.66796875,-34.1796875,Focusing
1746196967.3639376,3.2533804683039023,-39.0625,-22.94921875,-15.625,Focusing
1746196967.3678439,2.5295259951139,-37.59765625,0.9765625,-19.53125,Focusing
1746196967.37175,-3.1244025697885576,-37.59765625,-27.34375,-19.04296875,Focusing
1746196967.3756564,-8.295622935906977,-31.25,-48.828125,-11.71875,Focusing
1746196967.3795626,-9.719112023867396,-35.64453125,-31.73828125,-17.08984375,Focusing
1746196967.3834689,-9.153927618385424,-46.38671875,19.53125,-37.109375,Focusing
1746196967.387375,7.830295067215658,-39.55078125,3.41796875,-32.2265625,Focusing
1746196967.3912814,-0.9823780677846656,-34.66796875,-48.828125,-8.30078125,Focusing
1746196967.3951876,-3.8242554821803907,-32.71484375,-23.92578125,-16.6015625,Focusing
1746196967.3990939,-0.15195635973178412,-27.34375,14.6484375,-38.57421875,Focusing
1746196967.416125,5.598204050437914,-36.1328125,-22.94921875,-34.1796875,Focusing
1746196967.4200313,6.877989093488651,-39.0625,-22.4609375,-14.6484375,Focusing
1746196967.4239376,0.4881533030678611,-38.57421875,10.7421875,-5.37109375,Focusing
1746196967.4278438,-10.17022008639863,-51.7578125,-5.859375,-22.4609375,Focusing
1746196967.43175,-18.164025152377675,-52.24609375,-27.83203125,-30.2734375,Focusing
1746196967.4356563,-19.95995912885205,-41.50390625,-13.18359375,-26.3671875,Focusing
1746196967.4395626,7.652498970530701,-38.57421875,0.48828125,-27.83203125,Focusing
1746196967.4434688,0.7575083175262591,-41.9921875,4.39453125,-29.296875,Focusing
1746196967.447375,-0.8756470529453679,-44.921875,0.48828125,-28.3203125,Focusing
1746196967.4512813,1.770691744007749,-41.9921875,6.34765625,-22.4609375,Focusing
1746196967.4551876,3.7187365618321735,-39.0625,36.62109375,-24.4140625,Focusing
1746196967.4590938,0.6450616438851711,-41.9921875,24.4140625,-29.296875,Focusing
1746196967.461125,-6.406827790565416,-46.38671875,2.44140625,-17.08984375,Focusing
1746196967.4650311,-12.129596781406349,-52.734375,-25.390625,-2.44140625,Focusing
1746196967.4689374,-13.535523424969057,-48.33984375,2.44140625,-24.4140625,Focusing
1746196967.4728436,-13.195240693406163,-44.43359375,23.4375,-43.9453125,Focusing
1746196967.47675,7.162998283485464,-47.8515625,-12.6953125,-28.3203125,Focusing
1746196967.4806561,-2.481928153648795,-43.9453125,-27.83203125,-27.34375,Focusing
1746196967.4845624,-5.273541305105283,-44.921875,-18.5546875,-37.59765625,Focusing
1746196967.4884686,-1.0927734967252434,-46.38671875,-0.9765625,-49.31640625,Focusing
1746196967.492375,4.563132661964161,-40.52734375,-18.5546875,-36.62109375,Focusing
1746196967.4962811,5.112144089248375,-41.015625,-6.34765625,-29.296875,Focusing
1746196967.5001874,-1.1461141716132914,-49.31640625,35.15625,-46.875,Focusing
1746196967.5040936,-9.74596079842172,-50.78125,8.7890625,-45.41015625,Focusing
1746196967.505125,-15.06826076882568,-47.8515625,-26.85546875,-33.69140625,Focusing
1746196967.5090313,-15.772073821977173,-52.734375,0.9765625,-43.45703125,Focusing
1746196967.5129375,4.401703430810414,-65.91796875,17.578125,-57.6171875,Focusing
1746196967.5168438,-3.3248616480001942,-63.96484375,-16.6015625,-38.57421875,Focusing
1746196967.52075,-5.882779040325502,-50.29296875,-14.16015625,-24.4140625,Focusing
1746196967.5246563,-3.978142932674814,-46.875,-3.90625,-30.2734375,Focusing
1746196967.5285625,-0.2576639973583923,-44.43359375,-9.765625,-30.2734375,Focusing
1746196967.5324688,2.4624494983467997,-46.875,-8.7890625,-21.484375,Focusing
1746196967.536375,2.6427490880678306,-51.7578125,-11.71875,-13.671875,Focusing
1746196967.5402813,0.4262690440269665,-47.8515625,23.4375,-23.4375,Focusing
1746196967.5441875,-3.5327294346534615,-48.33984375,18.06640625,-32.71484375,Focusing
1746196967.5480938,-9.100296091212186,-42.96875,-40.52734375,-24.4140625,Focusing
1746196967.550125,5.839730200424526,-41.9921875,-24.4140625,-8.30078125,Focusing
1746196967.5540311,0.6577646643657147,-41.9921875,44.921875,-5.859375,Focusing
1746196967.5579374,-0.6377667525419497,-39.55078125,26.85546875,-21.97265625,Focusing
1746196967.5618436,0.6260697322494764,-47.36328125,-22.94921875,-22.94921875,Focusing
1746196967.56575,1.268568386532408,-52.24609375,-25.390625,-16.11328125,Focusing
1746196967.5696561,-0.5860327440228019,-44.43359375,-0.9765625,-20.99609375,Focusing
1746196967.5735624,-3.878990076996743,-34.66796875,-4.8828125,-17.08984375,Focusing
1746196967.5774686,-6.523800233260815,-33.203125,-25.87890625,-7.32421875,Focusing
1746196967.581375,-8.420088978359615,-35.15625,-21.97265625,-4.39453125,Focusing
1746196967.5852811,-10.881897876911133,-35.64453125,29.296875,-36.1328125,Focusing
1746196967.5891874,6.203091376834749,-38.0859375,12.20703125,-45.41015625,Focusing
1746196967.5930936,-5.828380257323246,-42.96875,5.859375,-26.85546875,Focusing
1746196967.595125,-9.040703733513922,-44.43359375,15.13671875,-25.390625,Focusing
1746196967.5990312,-1.772123155918237,-44.43359375,-20.99609375,-32.71484375,Focusing
1746196967.6029375,8.59810889151261,-36.1328125,-7.8125,-22.4609375,Focusing
1746196967.6068437,11.16854817069408,-30.2734375,21.484375,-10.25390625,Focusing
1746196967.61075,1.713708028262431,-41.50390625,28.80859375,-27.83203125,Focusing
1746196967.6146562,-12.685975456476456,-41.9921875,9.765625,-31.73828125,Focusing
1746196967.6185625,-20.523938189958088,-35.64453125,12.6953125,-33.69140625,Focusing
1746196967.6224687,-17.631578176782682,-29.78515625,15.625,-19.04296875,Focusing
1746196967.626375,4.218315968299052,-37.109375,33.69140625,-22.4609375,Focusing
1746196967.6302812,-5.53440556421225,-38.0859375,16.11328125,-34.66796875,Focusing
1746196967.6341875,-6.894832232390257,-29.296875,-12.6953125,-18.06640625,Focusing
1746196967.6380937,-1.1622665587130427,-27.34375,6.8359375,-19.04296875,Focusing
1746196967.640125,5.2289416309557595,-26.85546875,37.109375,-42.48046875,Focusing
1746196967.6440313,6.095748308190451,-29.78515625,22.94921875,-52.734375,Focusing
1746196967.6479375,0.5293178293130865,-26.85546875,-14.16015625,-37.109375,Focusing
1746196967.6518438,-7.1905428308161845,-26.85546875,6.34765625,-30.76171875,Focusing
1746196967.65575,-12.570167336281969,-24.4140625,32.2265625,-43.9453125,Focusing
1746196967.6596563,-14.725579520228166,-26.3671875,-2.44140625,-43.9453125,Focusing
1746196967.6635625,8.336187235059626,-27.83203125,-19.04296875,-36.62109375,Focusing
1746196967.6674688,-2.8296365618807187,-18.06640625,-10.7421875,-20.5078125,Focusing
1746196967.671375,-8.99727889623459,-34.1796875,44.921875,-36.62109375,Focusing
1746196967.6752813,-7.700204729803829,-52.24609375,11.71875,-47.8515625,Focusing
1746196967.6791875,-2.039493662071308,-41.9921875,-31.25,-38.57421875,Focusing
1746196967.6830938,2.010835189382604,-34.1796875,-0.48828125,-40.52734375,Focusing
1746196967.686125,1.302257413610036,-36.62109375,11.71875,-36.62109375,Focusing
1746196967.6900313,-2.0432525932972254,-35.64453125,1.46484375,-22.94921875,Focusing
1746196967.6939375,-4.4313125758121,-31.73828125,-15.13671875,-3.90625,Focusing
1746196967.6978438,-5.736331361360584,-31.25,5.859375,-19.04296875,Focusing
1746196967.70175,8.277935547576249,-33.203125,5.37109375,-35.64453125,Focusing
1746196967.7056563,-1.4253088933580216,-33.69140625,-17.578125,-28.80859375,Focusing
1746196967.7095625,-6.402617873744333,-27.83203125,-23.4375,-18.06640625,Focusing
1746196967.7134688,-5.289445134024945,-22.4609375,-17.08984375,-14.16015625,Focusing
1746196967.717375,-0.9686927479137211,-25.390625,8.7890625,-26.3671875,Focusing
1746196967.7212813,1.7559460554218589,-32.71484375,-32.2265625,-27.83203125,Focusing
1746196967.7251875,0.4114907845468423,-29.296875,-31.73828125,-15.625,Focusing
1746196967.7290938,-3.27853936819281,-25.390625,26.3671875,-23.4375,Focusing
1746196967.730125,-6.4467136212398515,-28.80859375,6.8359375,-35.64453125,Focusing
1746196967.7340312,-9.108782023776115,-32.71484375,-20.99609375,-21.484375,Focusing
1746196967.7379375,-0.287858040642881,-36.1328125,-30.2734375,-17.08984375,Focusing
1746196967.7418437,-7.402513527415081,-47.8515625,-21.484375,-28.80859375,Focusing
1746196967.74575,-8.535558315429363,-55.6640625,-2.44140625,-29.78515625,Focusing
1746196967.7496562,-4.185132534461111,-52.734375,-51.26953125,-19.04296875,Focusing
1746196967.7535625,1.3852093503399203,-49.8046875,-52.734375,-29.78515625,Focusing
1746196967.7574687,4.106185857387047,-38.57421875,6.8359375,-35.64453125,Focusing
1746196967.761375,3.2796307735425927,-37.59765625,9.27734375,-28.80859375,Focusing
1746196967.7652812,0.8960898767707022,-42.96875,-26.85546875,-13.671875,Focusing
1746196967.7691875,-1.1956293746133895,-40.0390625,-19.04296875,6.34765625,Focusing
1746196967.7730937,-2.360914260409423,-44.43359375,28.80859375,-16.6015625,Focusing
1746196967.790125,2.7562237467931965,-48.33984375,-2.44140625,-32.2265625,Focusing
1746196967.7940311,-5.560571505759086,-47.8515625,4.8828125,-28.3203125,Focusing
1746196967.7979374,-7.623606818779265,-45.41015625,47.8515625,-26.3671875,Focusing
1746196967.8018436,-3.0816931545140136,-50.78125,29.296875,-17.08984375,Focusing
1746196967.80575,3.6285513298260526,-44.43359375,-4.8828125,-6.34765625,Focusing
1746196967.8096561,6.600135864407221,-36.62109375,-22.4609375,-14.16015625,Focusing
1746196967.8135624,3.297431739582251,-41.50390625,-7.8125,-24.90234375,Focusing
1746196967.8174686,-3.440774637991481,-47.8515625,-2.44140625,-21.484375,Focusing
1746196967.821375,-8.480012293039422,-50.78125,-14.16015625,-21.484375,Focusing
1746196967.8252811,-9.487822061884884,-41.015625,-52.734375,-8.30078125,Focusing
1746196967.8291874,7.4973348526635135,-36.1328125,-26.3671875,-2.9296875,Focusing
1746196967.8330936,-0.3874096729780945,-37.59765625,39.0625,-35.15625,Focusing
1746196967.835125,-2.675811916665239,-39.55078125,-13.671875,-33.69140625,Focusing
1746196967.8390312,0.49085551787689496,-45.8984375,-33.203125,-20.99609375,Focusing
1746196967.8429375,3.401475171571562,-50.78125,-6.34765625,-42.48046875,Focusing
1746196967.8468437,0.45007062742207893,-52.24609375,-15.625,-46.875,Focusing
1746196967.85075,-7.259091067027896,-49.31640625,-7.32421875,-24.4140625,Focusing
1746196967.8546562,-12.857561048876136,-54.6875,-12.6953125,-25.87890625,Focusing
1746196967.8585625,-12.278757758861019,-56.15234375,-12.6953125,-28.3203125,Focusing
1746196967.8624687,-9.073143952748126,-58.10546875,2.9296875,-41.50390625,Focusing
1746196967.866375,9.683568931185988,-49.8046875,-18.5546875,-25.87890625,Focusing
1746196967.8702812,3.6570378013440177,-47.8515625,-38.0859375,5.37109375,Focusing
1746196967.8741875,0.5208729401478394,-55.17578125,32.71484375,-31.25,Focusing
1746196967.8780937,0.961194803961746,-54.19921875,22.4609375,-30.2734375,Focusing
1746196967.880125,2.763610012935004,-56.640625,-37.109375,-22.94921875,Focusing
1746196967.8840313,2.3103406323465947,-54.6875,-20.01953125,-42.96875,Focusing
1746196967.8879375,-2.3818899952225934,-52.24609375,-7.8125,-27.34375,Focusing
1746196967.8918438,-9.767602855639169,-59.08203125,-41.9921875,-15.13671875,Focusing
1746196967.89575,-16.10831158266035,-66.40625,-39.0625,-16.6015625,Focusing
1746196967.8996563,-18.83505610954252,-55.6640625,-15.13671875,-22.94921875,Focusing
1746196967.9035625,10.15684664398637,-55.6640625,-3.90625,-35.15625,Focusing
1746196967.9074688,5.365173984686635,-61.5234375,-6.8359375,-41.50390625,Focusing
1746196967.911375,2.430523087918587,-54.19921875,-59.08203125,-23.92578125,Focusing
1746196967.9152813,1.0068747413327088,-53.22265625,-28.80859375,-13.671875,Focusing
1746196967.9191875,-0.3031038492808591,-60.05859375,23.92578125,-39.55078125,Focusing
1746196967.9230938,-2.6335335933974164,-54.6875,-53.7109375,-38.57421875,Focusing
1746196967.925125,-5.740874165641571,-41.9921875,-64.453125,-24.4140625,Focusing
1746196967.9290311,-8.450803472804822,-44.43359375,-20.5078125,-30.76171875,Focusing
1746196967.9329374,-10.711663846526875,-52.734375,-30.76171875,-37.59765625,Focusing
1746196967.9368436,-14.089814569070143,-51.7578125,-74.70703125,-32.71484375,Focusing
1746196967.94075,13.20049201758846,-49.31640625,-67.3828125,-15.625,Focusing
1746196967.9446561,7.1070052622399515,-46.875,-35.15625,-20.5078125,Focusing
1746196967.9485624,4.413799874217517,-49.8046875,-54.19921875,-36.62109375,Focusing
1746196967.9524686,3.8557393875333617,-55.6640625,-80.56640625,-28.80859375,Focusing
1746196967.956375,2.027194355816917,-55.17578125,-86.9140625,-19.53125,Focusing
1746196967.9602811,-3.056455217696083,-49.8046875,-62.01171875,-33.69140625,Focusing
1746196967.9641874,-9.75712766705307,-40.52734375,-37.109375,-39.55078125,Focusing
1746196967.9680936,-15.000499519763025,-32.71484375,-53.22265625,-24.90234375,Focusing
1746196967.970125,-18.387729676704396,-45.41015625,-36.62109375,-32.2265625,Focusing
1746196967.9740312,-21.774952198747172,-52.24609375,-10.25390625,-50.78125,Focusing
1746196967.9779375,6.308205614139425,-46.38671875,-43.9453125,-30.76171875,Focusing
1746196967.9818437,0.3586998419085461,-44.43359375,-43.45703125,-20.99609375,Focusing
1746196967.98575,1.4878523314338565,-38.57421875,-29.296875,-31.73828125,Focusing
1746196967.9896562,7.246259870584495,-39.55078125,-50.29296875,-37.109375,Focusing
1746196967.9935625,11.311609606877298,-43.45703125,-51.7578125,-35.15625,Focusing
1746196967.9974687,8.147743056327954,-37.59765625,-62.01171875,-24.4140625,Focusing
1746196968.001375,-2.9002915419911943,-37.109375,-15.13671875,-22.94921875,Focusing
1746196968.0052812,-17.11184879821677,-34.1796875,36.1328125,-50.29296875,Focusing
1746196968.0091875,-27.597017225569573,-25.87890625,-17.578125,-37.109375,Focusing
1746196968.0130937,-29.705780330241097,-37.109375,-16.6015625,-27.34375,Focusing
1746196968.015125,-2.8963374859861943,-43.45703125,7.8125,-41.50390625,Focusing
1746196968.0190313,-12.970694741800145,-34.66796875,-6.8359375,-45.8984375,Focusing
1746196968.0229375,-10.660214081448032,-33.203125,-27.83203125,-41.015625,Focusing
1746196968.0268438,0.8719843675948198,-39.55078125,-9.27734375,-38.0859375,Focusing
1746196968.03075,11.64902352950395,-49.8046875,0.9765625,-41.9921875,Focusing
1746196968.0346563,12.74805059039825,-48.828125,-16.6015625,-34.66796875,Focusing
1746196968.0385625,3.5989429303492813,-46.38671875,-26.3671875,-33.203125,Focusing
1746196968.0424688,-8.167631688128353,-46.38671875,-49.31640625,-16.6015625,Focusing
1746196968.046375,-14.537966326033683,-38.57421875,13.18359375,-27.83203125,Focusing
1746196968.0502813,-14.019324623402397,-32.71484375,7.8125,-30.76171875,Focusing
1746196968.0541875,-2.3856798919631785,-41.9921875,-35.64453125,-20.01953125,Focusing
1746196968.0580938,-14.90917375585623,-42.96875,-7.32421875,-34.66796875,Focusing
1746196968.060125,-16.919481886408434,-33.203125,4.8828125,-42.48046875,Focusing
1746196968.0640314,-8.532503876536282,-35.64453125,4.8828125,-42.48046875,Focusing
1746196968.0679376,3.8279863826266762,-34.66796875,17.08984375,-30.2734375,Focusing
1746196968.0718439,12.221617281101643,-25.390625,46.875,-23.92578125,Focusing
1746196968.07575,12.233249651478673,-26.3671875,41.015625,-17.08984375,Focusing
1746196968.0796564,5.146262699059946,-22.4609375,4.39453125,-17.578125,Focusing
1746196968.0835626,-3.365771191926626,-21.484375,-25.390625,-7.32421875,Focusing
1746196968.0874689,-7.463319786080362,-27.34375,0.0,5.859375,Focusing
1746196968.091375,1.132485368537246,-27.34375,41.9921875,-10.7421875,Focusing
1746196968.0952814,-4.18840617219432,-32.2265625,20.5078125,-26.85546875,Focusing
1746196968.0991876,-5.440716921668397,-34.66796875,-2.9296875,-25.390625,Focusing
1746196968.1030939,-2.631451378233379,-38.0859375,31.25,-37.59765625,Focusing
1746196968.106125,1.7991269094918891,-37.59765625,42.96875,-39.55078125,Focusing
1746196968.1100314,4.4722992242627555,-35.15625,1.46484375,-18.06640625,Focusing
1746196968.1139376,3.456874278806268,-31.73828125,-0.9765625,-26.85546875,Focusing
1746196968.1178439,-0.2211163120860391,-26.85546875,12.20703125,-28.3203125,Focusing
1746196968.12175,-3.7592233747762975,-30.2734375,5.37109375,-33.203125,Focusing
1746196968.1256564,-5.584664039081964,-34.1796875,-20.99609375,-23.92578125,Focusing
1746196968.1295626,7.3882734379687065,-35.64453125,-5.859375,-9.765625,Focusing
1746196968.1334689,0.5481260940626669,-37.109375,27.83203125,-39.0625,Focusing
1746196968.137375,-2.469559454462029,-45.41015625,15.13671875,-49.8046875,Focusing
1746196968.1412814,-1.82619755445657,-49.31640625,-27.83203125,-32.71484375,Focusing
1746196968.1451876,0.4849139447287598,-48.33984375,-29.78515625,-24.90234375,Focusing
1746196968.1490939,2.189391627260008,-49.8046875,10.7421875,-27.34375,Focusing
1746196968.151125,1.3653830262167759,-51.26953125,19.53125,-31.25,Focusing
1746196968.1550312,-3.1496124208449032,-52.734375,8.7890625,-27.83203125,Focusing
1746196968.1589375,-10.427770913363418,-50.29296875,19.04296875,-22.4609375,Focusing
1746196968.1628437,-16.795685747218727,-44.921875,16.6015625,-38.57421875,Focusing
1746196968.16675,6.659432943594965,-28.80859375,-21.484375,-24.4140625,Focusing
1746196968.1706562,-1.9291998878007064,-22.94921875,-17.578125,-8.7890625,Focusing
1746196968.1745625,-6.433541625979515,-43.45703125,-9.27734375,-24.90234375,Focusing
1746196968.1784687,-4.503120703455764,-58.59375,-16.6015625,-41.015625,Focusing
1746196968.182375,1.2398338972630256,-56.15234375,6.8359375,-35.64453125,Focusing
1746196968.1862812,4.960653970940143,-45.8984375,-20.99609375,-7.8125,Focusing
1746196968.1901875,2.6956778567335107,-42.48046875,-21.484375,-17.08984375,Focusing
1746196968.1940937,-3.9688702434571184,-45.41015625,10.25390625,-45.41015625,Focusing
1746196968.210125,-9.542433687511412,-49.8046875,-30.2734375,-32.71484375,Focusing
1746196968.2140312,-10.421233772958907,-57.6171875,-13.671875,-26.3671875,Focusing
1746196968.2179375,-6.269367080576771,-58.59375,10.7421875,-25.390625,Focusing
1746196968.2218437,-8.031459432705248,-45.8984375,16.6015625,-24.90234375,Focusing
1746196968.22575,-1.9190285335325044,-35.64453125,5.859375,-18.06640625,Focusing
1746196968.2296562,7.357760335165992,-40.0390625,-14.6484375,-10.25390625,Focusing
1746196968.2335625,12.331857513132363,-39.55078125,16.6015625,-17.578125,Focusing
1746196968.2374687,8.916278313448913,-41.015625,15.13671875,-20.99609375,Focusing
1746196968.241375,-0.43628304814427565,-48.828125,-44.43359375,-5.37109375,Focusing
1746196968.2452812,-9.392054630589008,-50.78125,-31.73828125,-4.39453125,Focusing
1746196968.2491875,-13.259584132027676,-55.17578125,19.53125,-32.2265625,Focusing
1746196968.2530937,-11.395583421791486,-55.6640625,-21.484375,-28.3203125,Focusing
1746196968.255125,1.3129003079426411,-42.96875,-31.25,-18.06640625,Focusing
1746196968.2590313,-7.199139535660294,-34.1796875,-20.01953125,-22.94921875,Focusing
1746196968.2629375,-9.43354581040387,-41.50390625,-28.3203125,-29.78515625,Focusing
1746196968.2668438,-4.868889785422596,-43.45703125,-25.390625,-26.85546875,Focusing
1746196968.27075,2.5670190535488757,-38.0859375,-41.9921875,-20.5078125,Focusing
1746196968.2746563,7.278667877552209,-33.203125,-39.0625,-21.97265625,Focusing
1746196968.2785625,6.061854209324366,-29.296875,-45.41015625,-24.90234375,Focusing
1746196968.2824688,0.36659896520305324,-39.0625,-49.8046875,-27.83203125,Focusing
1746196968.286375,-5.274887392850786,-45.41015625,-57.6171875,-17.08984375,Focusing
1746196968.2902813,-7.531280747535092,-34.66796875,-54.6875,2.44140625,Focusing
1746196968.2941875,-0.9077535333002018,-31.73828125,-6.8359375,-21.97265625,Focusing
1746196968.2980938,-4.107002612641395,-34.1796875,-18.5546875,-31.73828125,Focusing
1746196968.300125,-1.720805222766181,-37.59765625,-47.36328125,-19.04296875,Focusing
1746196968.3040311,3.8805252666613654,-36.62109375,-5.37109375,-24.90234375,Focusing
1746196968.3079374,8.018995555978734,-33.69140625,6.34765625,-20.01953125,Focusing
1746196968.3118436,7.173428597584163,-40.0390625,-15.625,-23.4375,Focusing
1746196968.31575,1.2059305563219809,-44.43359375,-37.59765625,-23.92578125,Focusing
1746196968.3196561,-6.91172299909605,-41.9921875,-62.01171875,-18.06640625,Focusing
1746196968.3235624,-13.06022966599027,-42.96875,-48.33984375,-26.85546875,Focusing
1746196968.3274686,-14.192934744991291,-37.59765625,-46.875,-20.5078125,Focusing
1746196968.331375,12.520614086462885,-33.203125,-52.24609375,5.859375,Focusing
1746196968.3352811,7.7633696956199,-30.76171875,31.73828125,-16.11328125,Focusing
1746196968.3391874,2.472853111539422,-29.296875,43.45703125,-35.64453125,Focusing
1746196968.3430936,-1.8065088551401942,-33.69140625,2.44140625,-25.87890625,Focusing
1746196968.345125,-3.7987098537132624,-31.73828125,4.8828125,-30.2734375,Focusing
1746196968.3490312,-3.5295131591565507,-34.1796875,13.671875,-40.0390625,Focusing
1746196968.3529375,-2.858608963950857,-30.2734375,12.20703125,-23.92578125,Focusing
1746196968.3568437,-4.34235370462379,-24.90234375,-4.39453125,-5.859375,Focusing
1746196968.36075,-8.958000831869079,-31.73828125,14.16015625,-21.484375,Focusing
1746196968.3646562,-14.988915387916435,-27.34375,20.01953125,-26.3671875,Focusing
1746196968.3685625,5.35969683721077,-28.3203125,21.484375,-23.92578125,Focusing
1746196968.3724687,-2.354815863170778,-26.85546875,23.92578125,-6.34765625,Focusing
1746196968.376375,-5.751695278194411,-20.99609375,51.26953125,0.0,Focusing
1746196968.3802812,-2.8859468016732635,-33.203125,65.4296875,-31.25,Focusing
1746196968.3841875,2.5445259843362606,-37.59765625,46.38671875,-32.71484375,Focusing
1746196968.3880937,4.133308695117037,-33.69140625,-4.39453125,6.8359375,Focusing
1746196968.406125,-0.5538037944532732,-28.3203125,31.25,-1.953125,Focusing
1746196968.4100313,-7.018910670707193,-26.3671875,95.703125,-44.43359375,Focusing
1746196968.4139376,-8.99485488245201,-28.3203125,22.94921875,-38.0859375,Focusing
1746196968.4178438,-6.060432983380714,-31.25,5.37109375,-20.99609375,Focusing
1746196968.42175,5.656209411832975,-41.9921875,20.5078125,-37.109375,Focusing
1746196968.4256563,0.7681599566764561,-41.9921875,8.7890625,-23.92578125,Focusing
1746196968.4295626,1.3859982919740474,-33.69140625,8.7890625,1.953125,Focusing
1746196968.4334688,5.142057644929849,-33.69140625,25.390625,-11.23046875,Focusing
1746196968.437375,7.081324371123941,-37.59765625,75.1953125,-36.1328125,Focusing
1746196968.4412813,3.7171603679171454,-50.78125,35.64453125,-37.59765625,Focusing
1746196968.4451876,-4.2112770197430365,-51.7578125,0.0,-25.390625,Focusing
1746196968.4490938,-12.782780919551527,-47.8515625,22.4609375,-22.4609375,Focusing
1746196968.435125,-18.567990838605382,-53.22265625,8.30078125,-28.80859375,Focusing
1746196968.4390314,-20.63079335461741,-54.19921875,-20.01953125,-29.296875,Focusing
1746196968.4429376,-2.17455806122328,-50.78125,-0.48828125,-26.85546875,Focusing
1746196968.4468439,-7.313549665131802,-46.38671875,22.4609375,-29.296875,Focusing
1746196968.45075,-4.924426255873939,-48.828125,-13.671875,-18.5546875,Focusing
1746196968.4546564,2.5090974464318236,-46.875,-28.3203125,-10.7421875,Focusing
1746196968.4585626,9.37899372449327,-45.41015625,-26.3671875,-4.8828125,Focusing
1746196968.4624689,10.84280716615551,-55.17578125,1.953125,-10.7421875,Focusing
1746196968.466375,5.3149191893564165,-64.453125,39.55078125,-36.1328125,Focusing
1746196968.4702814,-4.99407512189282,-58.59375,16.11328125,-32.71484375,Focusing
1746196968.4741876,-14.64232335138518,-58.10546875,-56.640625,-15.625,Focusing
1746196968.4780939,-17.53054177399529,-64.453125,-43.45703125,-24.4140625,Focusing
1746196968.480125,2.2691105947496197,-59.5703125,18.06640625,-36.1328125,Focusing
1746196968.4840312,-4.739998258043698,-56.640625,-19.53125,-26.3671875,Focusing
1746196968.4879375,-3.945608911524971,-56.15234375,-39.55078125,-30.76171875,Focusing
1746196968.4918437,3.480409010616114,-51.26953125,-37.59765625,-37.109375,Focusing
1746196968.49575,9.95647157110362,-50.78125,-60.546875,-32.71484375,Focusing
1746196968.4996562,7.6220627569291395,-47.36328125,-91.796875,-14.6484375,Focusing
1746196968.5035625,-3.5107288745849132,-51.7578125,-90.8203125,-4.8828125,Focusing
1746196968.5074687,-14.606505983857673,-57.12890625,-64.453125,-25.390625,Focusing
1746196968.511375,-17.25067103104122,-54.19921875,-57.6171875,-35.15625,Focusing
1746196968.5152812,-12.465485753657106,-54.6875,-96.6796875,-25.87890625,Focusing
1746196968.5191875,3.0539541575252542,-53.7109375,-78.61328125,-22.94921875,Focusing
1746196968.5230937,-5.360519007901814,-55.6640625,-9.27734375,-35.15625,Focusing
1746196968.543125,-7.8216950105372405,-60.05859375,-23.4375,-26.85546875,Focusing
1746196968.5470312,-4.902545231950953,-59.08203125,-45.41015625,-25.87890625,Focusing
1746196968.5509374,-0.329377502338005,-55.17578125,-45.8984375,-28.80859375,Focusing
1746196968.5548437,2.435820346504727,-58.10546875,-37.109375,-33.203125,Focusing
1746196968.55875,2.507147794984647,-60.546875,-55.6640625,-41.50390625,Focusing
1746196968.5626562,0.7812602499640064,-48.33984375,-60.05859375,-32.71484375,Focusing
1746196968.5665624,-2.150886990144514,-37.59765625,-27.83203125,-34.1796875,Focusing
1746196968.5704687,-6.03619558560878,-41.50390625,-20.5078125,-45.41015625,Focusing
1746196968.574375,5.003965223712399,-44.43359375,-37.59765625,-40.52734375,Focusing
1746196968.5782812,-0.36393881158629426,-40.0390625,-44.43359375,-31.73828125,Focusing
1746196968.5821874,-2.008255701620925,-38.57421875,-7.32421875,-33.69140625,Focusing
1746196968.5860937,-0.011828443234207953,-41.9921875,-21.97265625,-32.71484375,Focusing
1746196968.585125,2.9101755096925785,-42.96875,-43.9453125,-35.15625,Focusing
1746196968.5890312,3.2557739003994755,-41.9921875,-56.640625,-19.04296875,Focusing
1746196968.5929375,-0.3893599930798928,-44.921875,-10.25390625,-16.6015625,Focusing
1746196968.5968437,-6.047036427043125,-45.41015625,24.90234375,-38.0859375,Focusing
1746196968.60075,-10.370642529556022,-48.828125,-43.9453125,-26.3671875,Focusing
1746196968.6046562,-11.997163675810157,-55.6640625,-75.1953125,-20.99609375,Focusing
1746196968.6085625,1.2180985371029251,-56.15234375,-44.43359375,-29.78515625,Focusing
1746196968.6124687,-1.1642093124360855,-54.6875,-10.25390625,-22.94921875,Focusing
1746196968.616375,0.8513985890918576,-54.6875,-49.8046875,-9.27734375,Focusing
1746196968.6202812,4.628418704846808,-53.22265625,-54.19921875,-8.30078125,Focusing
1746196968.6241875,5.860646668150366,-55.17578125,-8.7890625,-24.4140625,Focusing
1746196968.6280937,2.2843430407170757,-61.5234375,-35.15625,-30.76171875,Focusing
1746196968.630125,-4.126349913906047,-57.6171875,-62.5,-24.4140625,Focusing
1746196968.6340313,-9.048999443371507,-55.17578125,-34.66796875,-21.97265625,Focusing
1746196968.6379375,-10.423599945914766,-54.6875,-29.78515625,-36.1328125,Focusing
1746196968.6418438,-10.050577532472104,-41.015625,-64.94140625,-38.0859375,Focusing
1746196968.64575,5.880220423310007,-31.73828125,-63.4765625,-31.25,Focusing
1746196968.6496563,1.4319320348152331,-37.109375,-60.05859375,-20.5078125,Focusing
1746196968.6535625,0.0067867837113055884,-45.8984375,-53.7109375,-25.390625,Focusing
1746196968.6574688,0.3776963148562089,-49.8046875,-66.89453125,-27.34375,Focusing
1746196968.661375,0.5336930745560977,-49.31640625,-89.84375,-8.7890625,Focusing
1746196968.6652813,-0.4757974330429988,-52.24609375,-61.5234375,-16.6015625,Focusing
1746196968.6691875,-2.263582143761653,-54.19921875,-55.17578125,-34.1796875,Focusing
1746196968.6730938,-4.478799643377712,-51.7578125,-73.2421875,-28.80859375,Focusing
1746196968.676125,-7.724110818511733,-56.15234375,-71.2890625,-18.5546875,Focusing
1746196968.6800313,-12.077551770063678,-56.15234375,-59.08203125,-37.59765625,Focusing
1746196968.6839375,-1.3395874064415167,-41.50390625,-50.78125,-44.921875,Focusing
1746196968.6878438,-4.096721830625981,-36.1328125,-67.3828125,-46.875,Focusing
1746196968.69175,-2.0090081482945408,-32.71484375,-96.19140625,-31.25,Focusing
1746196968.6956563,2.735743526006999,-33.203125,-65.91796875,-21.97265625,Focusing
1746196968.6995625,5.975767597976919,-34.66796875,-50.29296875,-31.25,Focusing
1746196968.7034688,4.835382450398946,-27.34375,-76.171875,-26.85546875,Focusing
1746196968.707375,-0.038775890840341276,-29.296875,-69.3359375,-13.671875,Focusing
1746196968.7112813,-5.301469631653994,-34.66796875,-11.71875,-19.53125,Focusing
1746196968.7151875,-8.088353201206509,-34.66796875,-40.0390625,-13.671875,Focusing
1746196968.7190938,-8.063783186460455,-32.71484375,-68.84765625,-2.44140625,Focusing
1746196968.720125,5.572125745432473,-26.3671875,-46.875,-18.5546875,Focusing
1746196968.7240312,-2.3275072308189095,-33.69140625,-38.0859375,-21.484375,Focusing
1746196968.7279375,-5.068395908117566,-40.52734375,-48.828125,-21.484375,Focusing
1746196968.7318437,-2.3689878270901374,-39.0625,-62.01171875,-15.13671875,Focusing
1746196968.73575,1.0315270609302445,-40.0390625,-65.4296875,-15.625,Focusing
1746196968.7396562,0.18063913583476676,-35.64453125,-65.91796875,-21.484375,Focusing
1746196968.7435625,-4.355925900769876,-39.55078125,-49.8046875,-29.296875,Focusing
1746196968.7474687,-7.290516326829142,-44.43359375,-50.78125,-19.04296875,Focusing
1746196968.751375,-5.880742696708047,-41.9921875,-37.59765625,-15.625,Focusing
1746196968.7552812,-3.6261619808606937,-36.1328125,-2.44140625,-24.90234375,Focusing
1746196968.7591875,6.336559217527451,-23.4375,-32.71484375,-17.578125,Focusing
1746196968.7630937,0.031221810116207394,-19.53125,-62.5,-15.625,Focusing
1746196968.765125,-2.0308790402910404,-27.34375,-19.04296875,-25.87890625,Focusing
1746196968.7690313,0.02162167299104567,-34.66796875,-29.78515625,-32.2265625,Focusing
1746196968.7729375,2.7144144192184285,-32.2265625,-91.796875,-25.390625,Focusing
1746196968.7768438,2.147965921804598,-29.78515625,-71.77734375,-14.16015625,Focusing
1746196968.78075,-2.367587624620114,-36.1328125,-19.04296875,-16.11328125,Focusing
1746196968.7846563,-7.8637734106172275,-37.109375,-43.9453125,-35.64453125,Focusing
1746196968.7885625,-11.223248405847869,-39.0625,-60.05859375,-38.57421875,Focusing
1746196968.7924688,-12.247251646328586,-38.57421875,-67.3828125,-16.11328125,Focusing
1746196968.796375,5.366943615318121,-36.62109375,-2.9296875,-32.2265625,Focusing
1746196968.8002813,-1.326465099747196,-43.9453125,7.32421875,-59.5703125,Focusing
1746196968.8041875,-2.4721683063869193,-38.57421875,-30.76171875,-40.0390625,Focusing
1746196968.8080938,-0.23087910188390026,-35.64453125,-12.20703125,-39.0625,Focusing
1746196968.810125,2.418751609924797,-41.015625,-7.32421875,-48.828125,Focusing
1746196968.8140314,3.6265098551122463,-41.50390625,-17.578125,-39.55078125,Focusing
1746196968.8179376,2.221926764736068,-43.45703125,-24.4140625,-27.34375,Focusing
1746196968.8218439,-2.8138628372919783,-40.52734375,1.46484375,-35.64453125,Focusing
1746196968.82575,-11.115283470427244,-45.41015625,-23.4375,-38.57421875,Focusing
1746196968.8296564,-19.55053210389231,-50.78125,-45.8984375,-27.83203125,Focusing
1746196968.8335626,-4.3868674522546485,-43.9453125,-57.6171875,-22.94921875,Focusing
1746196968.8374689,-10.356076164794644,-41.9921875,-48.33984375,-22.94921875,Focusing
1746196968.841375,-7.034158382721529,-37.59765625,12.6953125,-46.38671875,Focusing
1746196968.8452814,2.1241885455505667,-35.15625,-5.859375,-34.66796875,Focusing
1746196968.8491876,9.412208476387946,-34.1796875,-44.921875,1.953125,Focusing
1746196968.8530939,9.335334926062515,-37.109375,8.7890625,-9.765625,Focusing
1746196968.856125,2.6825483353485993,-32.2265625,20.99609375,-26.85546875,Focusing
1746196968.8600314,-5.346969908067734,-25.87890625,-23.4375,-21.484375,Focusing
1746196968.8639376,-10.1962180421934,-30.76171875,-29.296875,-21.484375,Focusing
1746196968.8678439,-10.361103788872981,-26.85546875,3.41796875,-26.3671875,Focusing
1746196968.87175,5.018971554038849,-36.62109375,-17.578125,-19.04296875,Focusing
1746196968.8756564,5.181580354401078,-39.55078125,-44.43359375,3.41796875,Focusing
1746196968.8795626,4.020027313476447,-32.2265625,6.8359375,10.25390625,Focusing
1746196968.8834689,1.4753646172722767,-39.0625,56.15234375,-30.2734375,Focusing
1746196968.887375,-0.2607994488966696,-39.55078125,14.16015625,-36.62109375,Focusing
1746196968.8912814,0.3452371343676077,-44.43359375,-42.48046875,-4.39453125,Focusing
1746196968.8951876,1.340111179273464,-48.828125,-39.0625,-6.8359375,Focusing
1746196968.8990939,-0.9623761742330714,-46.38671875,-5.859375,-24.90234375,Focusing
1746196968.920125,-7.09327903089833,-46.875,-21.484375,-18.5546875,Focusing
1746196968.9240313,-13.213611254080678,-44.921875,-29.296875,2.9296875,Focusing
1746196968.9279375,-9.220141361498646,-46.38671875,-7.8125,3.41796875,Focusing
1746196968.9318438,-11.813234818879408,-56.640625,-17.08984375,-18.06640625,Focusing
1746196968.93575,-9.003113680587669,-60.05859375,-58.59375,-18.06640625,Focusing
1746196968.9396563,-2.6031111861241714,-47.36328125,-85.44921875,1.953125,Focusing
1746196968.9435625,3.9567847676967873,-41.50390625,-50.29296875,-2.9296875,Focusing
1746196968.9474688,8.273858494993663,-46.38671875,-38.0859375,-21.97265625,Focusing
1746196968.951375,9.406027147215445,-48.828125,-40.52734375,-17.578125,Focusing
1746196968.9552813,7.266513537571747,-48.828125,-60.546875,4.39453125,Focusing
1746196968.9591875,3.4571339334248314,-42.96875,-50.29296875,-3.41796875,Focusing
1746196968.9630938,1.78724706542992,-32.2265625,-4.8828125,-11.23046875,Focusing
1746196968.960125,-3.824033419117022,-44.43359375,-48.828125,1.953125,Focusing
1746196968.9640312,2.7645470830921823,-55.17578125,-55.17578125,-5.859375,Focusing
1746196968.9679375,4.093322713861276,-53.7109375,-29.296875,-18.06640625,Focusing
1746196968.9718437,0.7856728440544671,-50.29296875,-50.78125,-15.625,Focusing
1746196968.97575,-1.849193504750268,-48.828125,-61.5234375,-11.71875,Focusing
1746196968.9796562,0.7737756553144592,-56.15234375,-49.8046875,-7.32421875,Focusing
1746196968.9835625,6.550602492831132,-53.7109375,-23.4375,3.41796875,Focusing
1746196968.9874687,8.5006340966521,-52.734375,-15.625,-14.16015625,Focusing
1746196968.991375,4.223838708749618,-53.22265625,-46.875,-2.9296875,Focusing
1746196968.9952812,0.0706599471541196,-48.828125,-64.94140625,18.06640625,Focusing
1746196968.9991875,-9.440713530756852,-47.36328125,-21.97265625,-10.7421875,Focusing
1746196969.0030937,-5.956723664809189,-47.8515625,-32.71484375,-25.87890625,Focusing
1746196969.005125,-3.5888965165877664,-45.41015625,-44.921875,-18.06640625,Focusing
1746196969.0090313,-2.3546255784001744,-36.1328125,-40.52734375,-19.04296875,Focusing
1746196969.0129375,-1.9460143708040079,-42.48046875,-36.62109375,-14.16015625,Focusing
1746196969.0168438,-1.3990537263595542,-40.0390625,-44.921875,5.859375,Focusing
1746196969.02075,1.2634283874867975,-28.80859375,-58.59375,7.8125,Focusing
1746196969.0246563,7.604509162679747,-26.85546875,-55.6640625,0.9765625,Focusing
1746196969.0285625,16.094985774644726,-28.3203125,-56.640625,-15.625,Focusing
1746196969.0324688,22.081223676658617,-25.390625,-29.296875,-32.2265625,Focusing
1746196969.036375,-8.376361616231321,-30.2734375,-39.0625,-13.671875,Focusing
1746196969.0402813,-5.4073629538233305,-41.50390625,-70.3125,-1.953125,Focusing
1746196969.0441875,-3.442315535170721,-42.48046875,-25.87890625,-29.78515625,Focusing
1746196969.0480938,-3.6038608748341403,-44.921875,-20.01953125,-42.48046875,Focusing
1746196969.050125,-4.81870315428894,-38.57421875,-41.9921875,-40.0390625,Focusing
1746196969.0540311,-3.6823171083339616,-32.71484375,-40.0390625,-35.64453125,Focusing
1746196969.0579374,2.50282585260684,-32.2265625,-56.640625,-28.3203125,Focusing
1746196969.0618436,11.834323988156022,-34.66796875,-80.56640625,-20.01953125,Focusing
1746196969.06575,18.45841361297049,-46.875,-70.3125,-15.13671875,Focusing
1746196969.0696561,18.84897948447282,-57.12890625,-19.53125,-11.71875,Focusing
1746196969.0735624,-9.665882635116262,-49.8046875,1.46484375,-10.7421875,Focusing
1746196969.0774686,-1.6644603255009969,-34.66796875,-22.4609375,-16.6015625,Focusing
1746196969.081375,-1.1907344444927475,-32.2265625,-31.25,-15.625,Focusing
1746196969.0852811,-6.119461554154071,-32.71484375,-41.015625,-21.484375,Focusing
1746196969.0891874,-9.286729073806583,-26.85546875,-73.73046875,-23.92578125,Focusing
1746196969.0930936,-4.784538913745877,-24.90234375,-84.9609375,9.765625,Focusing
1746196969.110125,6.7712018254687365,-34.66796875,-54.6875,19.04296875,Focusing
1746196969.1140313,19.292634094382663,-41.9921875,-15.625,-6.34765625,Focusing
1746196969.1179376,27.073763311321528,-34.66796875,-56.15234375,-10.25390625,Focusing
1746196969.1218438,28.416577372144843,-28.3203125,-60.546875,-15.13671875,Focusing
1746196969.12575,3.6655337431471366,-26.3671875,-46.38671875,-12.20703125,Focusing
1746196969.1296563,20.56339047761344,-26.85546875,-73.2421875,-8.7890625,Focusing
1746196969.1335626,20.46704782126963,-22.4609375,-65.4296875,0.9765625,Focusing
1746196969.1374688,4.946546269964443,-30.2734375,-71.77734375,14.6484375,Focusing
1746196969.141375,-12.719043358895647,-45.41015625,-65.4296875,8.30078125,Focusing
1746196969.1452813,-18.289568550148175,-43.45703125,-21.484375,-20.01953125,Focusing
1746196969.1491876,-8.627808217918414,-40.52734375,-77.63671875,-11.71875,Focusing
1746196969.1530938,6.49808497834033,-39.55078125,-82.51953125,-5.859375,Focusing
1746196969.141125,14.744726675174661,-34.1796875,-63.4765625,-19.04296875,Focusing
1746196969.1450312,12.494287407435962,-31.25,-79.58984375,-11.71875,Focusing
1746196969.1489375,-6.177538495146479,-34.1796875,-73.73046875,6.34765625,Focusing
1746196969.1528437,4.965282970733227,-39.0625,-54.19921875,19.04296875,Focusing
1746196969.15675,7.761841436239223,-44.921875,-57.12890625,4.8828125,Focusing
1746196969.1606562,2.4293405968446393,-45.41015625,-109.375,-0.9765625,Focusing
1746196969.1645625,-4.1706692260295455,-40.0390625,-133.7890625,7.32421875,Focusing
1746196969.1684687,-4.564501221263782,-33.203125,-102.5390625,3.90625,Focusing
1746196969.172375,2.0038513700532405,-37.59765625,-71.2890625,-8.30078125,Focusing
1746196969.1762812,9.20871550804219,-38.57421875,-102.05078125,-13.671875,Focusing
1746196969.1801875,11.640491651535399,-32.71484375,-124.51171875,-2.44140625,Focusing
1746196969.1840937,11.00634681778591,-22.4609375,-80.56640625,-4.39453125,Focusing
1746196969.185125,-4.798469372657095,-21.484375,-22.94921875,-28.3203125,Focusing
1746196969.1890314,-0.8627608055360554,-33.203125,-56.15234375,-19.04296875,Focusing
1746196969.1929376,1.7250395420296343,-30.2734375,-97.16796875,-2.9296875,Focusing
1746196969.1968439,1.9593279842511748,-25.87890625,-72.75390625,-16.11328125,Focusing
1746196969.20075,-0.3718784752495239,-33.69140625,-41.015625,-15.13671875,Focusing
1746196969.2046564,-3.7094140536497733,-37.59765625,-37.59765625,-10.25390625,Focusing
1746196969.2085626,-4.512633406166302,-27.83203125,-62.98828125,3.41796875,Focusing
1746196969.2124689,0.0028866447220394775,-21.484375,-82.51953125,20.5078125,Focusing
1746196969.216375,7.888994297776662,-18.06640625,-16.6015625,-9.765625,Focusing
1746196969.2202814,13.280387287118636,-20.01953125,-40.0390625,-28.3203125,Focusing
1746196969.2241876,-6.010589632952474,-25.390625,-69.3359375,-23.92578125,Focusing
1746196969.2280939,-0.9240957375304149,-19.53125,-22.94921875,-13.671875,Focusing
1746196969.230125,6.258175697871181,-21.97265625,-52.24609375,-3.90625,Focusing
1746196969.2340312,11.850843369399524,-23.92578125,-92.7734375,2.9296875,Focusing
1746196969.2379375,11.440687172057977,-27.83203125,-77.1484375,4.39453125,Focusing
1746196969.2418437,3.963533459611508,-45.41015625,-44.921875,-16.6015625,Focusing
1746196969.24575,-6.368192565911947,-48.33984375,-68.359375,-15.13671875,Focusing
1746196969.2496562,-13.145950051862393,-40.52734375,-113.76953125,-3.41796875,Focusing
1746196969.2535625,-12.83318121724092,-44.921875,-82.03125,-7.32421875,Focusing
1746196969.2574687,-6.186063433969565,-48.828125,-31.73828125,-22.94921875,Focusing
1746196969.261375,-7.32201260599148,-47.36328125,-20.99609375,-38.57421875,Focusing
1746196969.2652812,-4.203234583137322,-47.8515625,-62.5,-16.6015625,Focusing
1746196969.2691875,-0.06320515440905794,-43.9453125,-57.12890625,5.37109375,Focusing
1746196969.2730937,1.3213344982799429,-37.59765625,15.13671875,-20.5078125,Focusing
1746196969.290125,-0.2815891012570164,-46.875,-36.1328125,-26.3671875,Focusing
1746196969.2940311,-1.1314772932682744,-49.31640625,-62.98828125,-18.5546875,Focusing
1746196969.2979374,1.9552264599959055,-40.52734375,-46.38671875,-18.06640625,Focusing
1746196969.3018436,6.991183017527,-37.59765625,-61.03515625,-23.92578125,Focusing
1746196969.30575,8.532196095244348,-37.59765625,-70.80078125,-21.97265625,Focusing
1746196969.3096561,4.9547890338209655,-34.66796875,-67.87109375,-23.92578125,Focusing
1746196969.3135624,-1.2664640277162889,-38.0859375,-45.41015625,-48.33984375,Focusing
1746196969.3174686,-0.11234230615307439,-44.43359375,-39.55078125,-31.73828125,Focusing
1746196969.321375,2.637819132982763,-41.9921875,-49.31640625,-20.99609375,Focusing
1746196969.3252811,3.290310202524104,-41.50390625,-81.54296875,-20.5078125,Focusing
1746196969.3291874,1.0449884795463262,-39.0625,-68.84765625,-8.7890625,Focusing
1746196969.3330936,-1.1351192551428326,-39.55078125,-14.16015625,-40.52734375,Focusing
1746196969.335125,-0.6259397916627663,-43.9453125,-37.109375,-41.015625,Focusing
1746196969.3390312,0.7800851236758461,-36.1328125,-65.91796875,-24.90234375,Focusing
1746196969.3429375,-1.2439822784657792,-40.0390625,-67.3828125,-34.66796875,Focusing
1746196969.3468437,-7.00776150769358,-51.26953125,-67.3828125,-46.38671875,Focusing
1746196969.35075,-10.284102071909125,-51.26953125,-84.47265625,-33.69140625,Focusing
1746196969.3546562,-7.261034697593061,-49.8046875,-82.51953125,-21.97265625,Focusing
1746196969.3585625,-1.0010986088874425,-43.9453125,-77.1484375,-20.01953125,Focusing
1746196969.3624687,5.801928975007627,-39.55078125,-80.56640625,-21.97265625,Focusing
1746196969.366375,10.529772839157328,-35.15625,-115.72265625,0.48828125,Focusing
1746196969.3702812,11.447584707309904,-35.64453125,-103.02734375,8.7890625,Focusing
1746196969.3741875,7.493759126763345,-47.36328125,-48.828125,-26.3671875,Focusing
1746196969.3780937,-0.5525954323318611,-49.8046875,-64.94140625,-33.69140625,Focusing
1746196969.380125,-7.894929851271053,-41.50390625,-112.79296875,-3.41796875,Focusing
1746196969.3840313,-7.75935226132294,-41.015625,-106.93359375,-3.90625,Focusing
1746196969.3879375,-14.450015848115143,-44.43359375,-72.265625,-31.73828125,Focusing
1746196969.3918438,-3.789869188000438,-42.48046875,-94.23828125,-31.73828125,Focusing
1746196969.39575,5.499038870289752,-42.48046875,-102.5390625,-7.8125,Focusing
1746196969.3996563,9.033463065486615,-50.29296875,-88.8671875,8.30078125,Focusing
1746196969.4035625,5.975506917847312,-52.734375,-65.4296875,-1.953125,Focusing
1746196969.4074688,-0.11596831638064486,-50.29296875,-50.29296875,-14.16015625,Focusing
1746196969.411375,-3.4531241573039324,-52.734375,-73.73046875,16.11328125,Focusing
1746196969.4152813,-0.3191357412563036,-50.29296875,-68.84765625,41.9921875,Focusing
1746196969.4191875,7.566086453788785,-45.41015625,-16.11328125,-2.44140625,Focusing
1746196969.4230938,14.742413380375567,-41.015625,-56.640625,-6.8359375,Focusing
1746196969.425125,-26.68829063644779,-40.52734375,-78.61328125,6.34765625,Focusing
1746196969.4290311,-9.685094638335926,-37.109375,-42.96875,2.44140625,Focusing
1746196969.4329374,1.8927478492255148,-32.71484375,-29.78515625,13.671875,Focusing
1746196969.4368436,3.2308877666966964,-36.62109375,-34.66796875,29.296875,Focusing
1746196969.44075,-0.613711502512075,-45.41015625,-35.15625,26.3671875,Focusing
1746196969.4446561,0.45894791908929733,-51.7578125,-48.828125,20.5078125,Focusing
1746196969.4485624,10.599737659751241,-53.7109375,-73.2421875,25.390625,Focusing
1746196969.4524686,23.492078081960443,-47.36328125,-94.23828125,24.4140625,Focusing
1746196969.456375,30.397719904605083,-38.57421875,-96.19140625,38.57421875,Focusing
1746196969.4602811,30.5580299262854,-40.0390625,-36.62109375,39.55078125,Focusing
1746196969.4641874,-17.119737388307357,-41.9921875,-88.8671875,38.0859375,Focusing
1746196969.4680936,-1.287261278008856,-36.1328125,-130.859375,49.31640625,Focusing
1746196969.470125,4.575406337701736,-30.76171875,-88.8671875,48.33984375,Focusing
1746196969.4740312,1.2270555085363242,-37.109375,-92.7734375,45.8984375,Focusing
1746196969.4779375,-4.924018526245277,-42.48046875,-107.91015625,53.22265625,Focusing
1746196969.4818437,-6.600387631078888,-47.36328125,-94.7265625,61.03515625,Focusing
1746196969.48575,0.06226656146216669,-45.41015625,-86.42578125,63.4765625,Focusing
1746196969.4896562,13.83915496705896,-40.52734375,-104.00390625,67.3828125,Focusing
1746196969.4935625,29.376653699118265,-45.41015625,-97.65625,70.80078125,Focusing
1746196969.4974687,40.15758759644146,-45.41015625,-102.5390625,85.9375,Focusing
1746196969.501375,-8.865616581947478,-47.36328125,-94.7265625,85.44921875,Focusing
1746196969.5052812,7.853686356097654,-49.31640625,-79.1015625,62.98828125,Focusing
1746196969.5091875,9.093112491648498,-39.0625,-98.6328125,67.87109375,Focusing
1746196969.5130937,-2.4525851038114013,-41.50390625,-152.34375,86.42578125,Focusing
1746196969.515125,-14.456010907084249,-43.45703125,-113.76953125,80.078125,Focusing
1746196969.5190313,-14.559365396935618,-35.15625,-64.94140625,62.98828125,Focusing
1746196969.5229375,-0.2719841236225875,-29.296875,-105.46875,63.4765625,Focusing
1746196969.5268438,19.768579373825077,-25.87890625,-105.46875,67.87109375,Focusing
1746196969.53075,34.123033075273895,-29.78515625,-104.98046875,71.2890625,Focusing
1746196969.5346563,37.53795375576118,-39.55078125,-114.74609375,54.6875,Focusing
1746196969.5385625,-1.7953811181020285,-42.96875,-117.1875,54.19921875,Focusing
1746196969.5424688,17.68454202048173,-47.36328125,-102.05078125,72.75390625,Focusing
1746196969.546375,17.781363162179787,-52.24609375,-68.84765625,51.26953125,Focusing
1746196969.5502813,1.7053387247053706,-49.31640625,-95.21484375,42.96875,Focusing
1746196969.5541875,-15.711045317748585,-43.9453125,-117.1875,61.5234375,Focusing
1746196969.5580938,-19.458071594567173,-38.57421875,-103.02734375,56.640625,Focusing
1746196969.560125,-6.3426243686700445,-34.1796875,-75.68359375,30.76171875,Focusing
1746196969.5640314,13.226886727801343,-27.83203125,-74.70703125,29.78515625,Focusing
1746196969.5679376,26.05709904828319,-22.94921875,-62.01171875,39.0625,Focusing
1746196969.5718439,28.12482210918762,-32.71484375,-38.0859375,34.1796875,Focusing
1746196969.57575,-9.180362758845234,-39.55078125,-85.44921875,40.52734375,Focusing
1746196969.5796564,8.017930253356639,-46.38671875,-113.28125,43.9453125,Focusing
1746196969.5835626,11.993703827687227,-48.828125,-83.0078125,43.45703125,Focusing
1746196969.5874689,3.512104534303802,-36.62109375,-52.24609375,28.80859375,Focusing
1746196969.591375,-7.4736088854844525,-27.83203125,-42.48046875,11.71875,Focusing
1746196969.5952814,-10.16923825497966,-27.83203125,-68.359375,22.94921875,Focusing
1746196969.5991876,-1.7110902465195181,-29.296875,-112.3046875,36.62109375,Focusing
1746196969.6030939,11.821180687799938,-29.296875,-86.42578125,32.71484375,Focusing
1746196969.607125,22.269002687638107,-26.85546875,-77.1484375,25.390625,Focusing
1746196969.6110313,25.979795396390045,-28.3203125,-125.48828125,44.43359375,Focusing
1746196969.6149375,-2.156924300133909,-27.34375,-100.09765625,51.26953125,Focusing
1746196969.6188438,10.346964146784273,-27.83203125,-77.1484375,26.3671875,Focusing
1746196969.62275,8.887454006210163,-29.296875,-113.28125,18.5546875,Focusing
1746196969.6266563,-3.5460773672787695,-26.3671875,-143.5546875,31.73828125,Focusing
1746196969.6305625,-15.87290366686247,-23.4375,-109.86328125,40.52734375,Focusing
1746196969.6344688,-16.834205407775215,-25.390625,-45.8984375,37.59765625,Focusing
1746196969.638375,-3.681654991530195,-20.5078125,-50.78125,48.828125,Focusing
1746196969.6422813,15.44489685010251,-13.671875,-91.796875,44.43359375,Focusing
1746196969.6461875,28.552237845084534,-9.27734375,-66.40625,32.71484375,Focusing
1746196969.6500938,30.12962288957533,-16.6015625,-36.62109375,17.578125,Focusing
1746196969.665125,-11.410412338466301,-28.3203125,-72.75390625,19.04296875,Focusing
1746196969.6690311,1.436712973669671,-27.34375,-55.17578125,33.203125,Focusing
1746196969.6729374,4.1359887150994155,-24.90234375,-38.57421875,26.3671875,Focusing
1746196969.6768436,-1.7386491768910446,-20.01953125,-53.7109375,23.4375,Focusing
1746196969.68075,-7.974073454895631,-20.5078125,-53.22265625,31.25,Focusing
1746196969.6846561,-6.736375670775487,-22.4609375,-112.3046875,57.6171875,Focusing
1746196969.6885624,3.150280884093263,-16.11328125,-105.95703125,68.359375,Focusing
1746196969.6924686,16.43258371912387,-10.25390625,-49.8046875,25.390625,Focusing
1746196969.696375,26.820778702350026,-5.859375,-71.77734375,13.18359375,Focusing
1746196969.7002811,30.981415755919002,-0.48828125,-92.7734375,36.62109375,Focusing
1746196969.7041874,-7.7496378831846755,-4.39453125,-63.4765625,36.1328125,Focusing
1746196969.7080936,13.750033176531645,-9.765625,-63.4765625,28.80859375,Focusing
1746196969.710125,20.230119189381128,-15.13671875,-100.5859375,41.9921875,Focusing
1746196969.7140312,10.059365584059066,-15.13671875,-61.03515625,55.17578125,Focusing
1746196969.7179375,-6.192489977270327,-17.578125,-33.69140625,46.875,Focusing
1746196969.7218437,-14.154154504837294,-27.34375,-63.96484375,41.50390625,Focusing
1746196969.72575,-7.715665131020785,-36.62109375,-95.21484375,47.36328125,Focusing
1746196969.7296562,6.592093816982981,-31.73828125,-81.54296875,33.69140625,Focusing
1746196969.7335625,17.298763258596637,-28.80859375,-27.83203125,31.25,Focusing
1746196969.7374687,19.436004832313813,-40.52734375,-23.92578125,55.17578125,Focusing
1746196969.741375,-0.577104865937315,-48.33984375,-53.7109375,62.98828125,Focusing
1746196969.7452812,8.888754246494045,-45.41015625,-90.8203125,61.5234375,Focusing
1746196969.7491875,5.501783436895948,-37.109375,-25.390625,36.1328125,Focusing
1746196969.7530937,-5.853228852205774,-37.109375,-23.92578125,30.2734375,Focusing
1746196969.756125,-13.76528732091407,-32.2265625,-60.546875,49.31640625,Focusing
1746196969.7600312,-9.964675378476699,-23.4375,-34.66796875,46.38671875,Focusing
1746196969.7639375,3.3903563260812177,-20.5078125,-44.921875,47.8515625,Focusing
1746196969.7678437,16.502416110352527,-33.203125,-72.265625,46.875,Focusing
1746196969.77175,22.201383720781394,-38.57421875,-75.1953125,44.921875,Focusing
1746196969.7756562,21.289165209625338,-28.3203125,-49.8046875,50.78125,Focusing
1746196969.7795625,-4.6655644029732315,-29.296875,-48.33984375,57.6171875,Focusing
1746196969.7834687,8.65044247766653,-30.76171875,-62.01171875,43.9453125,Focusing
1746196969.787375,14.851334832150116,-36.62109375,-76.171875,43.9453125,Focusing
1746196969.7912812,12.7495793453256,-42.96875,-83.984375,62.98828125,Focusing
1746196969.7951875,6.336681267092558,-39.55078125,-53.22265625,57.6171875,Focusing
1746196969.7990937,0.7295050703789627,-32.71484375,-47.36328125,46.38671875,Focusing
1746196969.800125,-2.8089656557422273,-33.69140625,-48.828125,32.2265625,Focusing
1746196969.8040311,-6.366836652961894,-39.55078125,-40.0390625,16.6015625,Focusing
1746196969.8079374,-9.35569103959331,-37.59765625,-54.6875,16.11328125,Focusing
1746196969.8118436,-6.67822638572251,-36.62109375,-87.40234375,27.34375,Focusing
1746196969.81575,3.1011858555735614,-31.73828125,-88.37890625,31.25,Focusing
1746196969.8196561,11.596306116384923,-28.3203125,-78.61328125,32.71484375,Focusing
1746196969.8235624,12.004078212252118,-32.71484375,-65.4296875,26.3671875,Focusing
1746196969.8274686,4.869756353154841,-32.71484375,-78.125,26.85546875,Focusing
1746196969.831375,-4.66728711609796,-37.59765625,-85.44921875,37.59765625,Focusing
1746196969.8352811,-10.535628203510157,-33.203125,-32.2265625,23.4375,Focusing
1746196969.8391874,-9.488532021722605,-23.4375,-44.43359375,12.20703125,Focusing
1746196969.8430936,-2.92197676353274,-31.25,-86.42578125,17.578125,Focusing
1746196969.845125,4.130675495109088,-36.1328125,-79.1015625,13.671875,Focusing
1746196969.8490312,6.8315800623857825,-40.52734375,-62.5,0.48828125,Focusing
1746196969.8529375,8.630326952956054,-45.8984375,-79.58984375,0.48828125,Focusing
1746196969.8568437,10.751136886453358,-38.57421875,-124.0234375,13.18359375,Focusing
1746196969.86075,11.911763462903057,-34.66796875,-115.234375,3.90625,Focusing
1746196969.8646562,12.679705493892115,-30.76171875,-62.5,-3.41796875,Focusing
1746196969.8685625,10.86524482393873,-24.90234375,-54.19921875,17.08984375,Focusing
1746196969.8724687,2.8887445039431405,-37.109375,-78.125,26.3671875,Focusing
1746196969.876375,-11.178614535470038,-43.9453125,-62.01171875,2.9296875,Focusing
1746196969.8802812,-24.839056314470092,-43.45703125,-42.96875,-18.06640625,Focusing
1746196969.8841875,-29.504078814069643,-53.22265625,-67.87109375,-20.5078125,Focusing
1746196969.8880937,-22.714288634873693,-63.96484375,-91.30859375,-13.671875,Focusing
1746196969.891125,27.029118877052383,-62.5,-57.12890625,-13.671875,Focusing
1746196969.8950312,17.226414831788247,-57.12890625,-59.08203125,-32.2265625,Focusing
1746196969.8989375,15.084754308705527,-49.8046875,-101.07421875,-44.43359375,Focusing
1746196969.9028437,17.0490033846512,-35.64453125,-82.03125,-24.90234375,Focusing
1746196969.90675,13.162477563717118,-28.3203125,-39.0625,-39.55078125,Focusing
1746196969.9106562,-3.3382715190621184,-30.76171875,-80.078125,-54.19921875,Focusing
1746196969.9145625,-27.398691182025374,-32.2265625,-116.69921875,-39.0625,Focusing
1746196969.9184687,-45.983898542041004,-35.15625,-120.1171875,-23.92578125,Focusing
1746196969.922375,-52.30175071851369,-40.0390625,-45.41015625,-48.828125,Focusing
1746196969.9262812,-51.521657130226885,-40.52734375,-40.52734375,-75.68359375,Focusing
1746196969.9301875,34.46019826169237,-46.38671875,-91.796875,-62.5,Focusing
1746196969.9340937,7.363665477175402,-50.29296875,-76.171875,-48.33984375,Focusing
1746196969.935125,3.4633646314802604,-46.38671875,-45.8984375,-41.015625,Focusing
1746196969.9390314,17.36349227367009,-52.24609375,-70.3125,-40.0390625,Focusing
1746196969.9429376,28.181352113319974,-55.17578125,-96.6796875,-42.96875,Focusing
1746196969.9468439,16.698502065351704,-52.734375,-63.4765625,-53.22265625,Focusing
1746196969.95075,-18.291638469945667,-51.7578125,-83.49609375,-50.29296875,Focusing
1746196969.9546564,-59.85638600578096,-43.9453125,-107.421875,-47.36328125,Focusing
1746196969.9585626,-88.5507702987033,-44.921875,-98.6328125,-50.29296875,Focusing
1746196969.9624689,-96.18977478824684,-45.41015625,-71.2890625,-49.31640625,Focusing
1746196969.966375,0.49366830717212906,-46.875,-43.9453125,-60.546875,Focusing
1746196969.9702814,-36.41943039384455,-40.52734375,-82.03125,-73.73046875,Focusing
1746196969.9741876,-40.56545391710421,-33.203125,-91.30859375,-64.453125,Focusing
1746196969.9780939,-15.921648302970425,-39.0625,-24.90234375,-66.40625,Focusing
1746196969.980125,15.836005778797414,-40.52734375,-20.99609375,-83.49609375,Focusing
1746196969.9840312,31.75743567866641,-40.52734375,-71.2890625,-62.98828125,Focusing
1746196969.9879375,23.259773469780612,-34.66796875,-72.265625,-65.91796875,Focusing
1746196969.9918437,-0.6769219988143504,-27.34375,-51.7578125,-78.125,Focusing
1746196969.99575,-23.963701296941395,-31.73828125,-50.29296875,-75.68359375,Focusing
1746196969.9996562,-36.59905301809556,-34.1796875,-70.3125,-62.98828125,Focusing
1746196970.0035625,2.7085835896646415,-29.78515625,-66.40625,-47.36328125,Focusing
1746196970.0074687,-19.620879564239118,-33.203125,-16.6015625,-60.546875,Focusing
1746196970.011375,-22.837818882011362,-31.25,-13.671875,-77.63671875,Focusing
1746196970.0152812,-8.934844785299134,-19.53125,-52.24609375,-60.546875,Focusing
1746196970.0191875,10.02349995311144,-20.5078125,-25.87890625,-41.9921875,Focusing
1746196970.0230937,20.67497140793006,-28.3203125,20.01953125,-55.17578125,Focusing
1746196970.040125,16.207760936963496,-30.2734375,-24.4140625,-56.15234375,Focusing
1746196970.0440311,-0.7019965371572141,-25.390625,-44.921875,-56.15234375,Focusing
1746196970.0479374,-20.12246157940976,-14.16015625,-21.484375,-66.89453125,Focusing
1746196970.0518436,-31.31773297149016,-10.7421875,-14.6484375,-82.03125,Focusing
1746196970.05575,-2.058630065721715,-19.04296875,-40.0390625,-74.70703125,Focusing
1746196970.0596561,-10.78457358707493,-13.18359375,-56.640625,-45.41015625,Focusing
1746196970.0635624,-11.581215716603197,-14.6484375,-37.109375,-46.38671875,Focusing
1746196970.0674686,-5.586599726758905,-9.27734375,-41.9921875,-57.12890625,Focusing
1746196970.071375,3.1078293745294587,-12.6953125,-41.015625,-64.94140625,Focusing
1746196970.0752811,9.797499010806874,-40.52734375,-74.21875,-54.19921875,Focusing
1746196970.0791874,10.876169050531146,-43.9453125,-44.43359375,-51.7578125,Focusing
1746196970.0830936,5.574605925361439,-38.0859375,-24.90234375,-64.94140625,Focusing
1746196970.085125,-2.9204942501146434,-37.109375,-70.3125,-44.921875,Focusing
1746196970.0890312,-9.445971936929794,-35.64453125,-24.4140625,-34.66796875,Focusing
1746196970.0929375,-1.6421419865655849,-36.1328125,-11.71875,-41.50390625,Focusing
1746196970.0968437,1.2772408692686739,-40.52734375,-37.109375,-42.48046875,Focusing
1746196970.10075,3.194914718984284,-45.41015625,-42.48046875,-30.76171875,Focusing
1746196970.1046562,2.2221808427522625,-43.9453125,-50.29296875,-25.390625,Focusing
1746196970.1085625,0.13305060711375472,-41.50390625,-33.203125,-34.66796875,Focusing
1746196970.1124687,0.23600645724406988,-42.96875,-5.37109375,-51.7578125,Focusing
1746196970.116375,2.669065753593806,-40.52734375,-43.9453125,-47.36328125,Focusing
1746196970.1202812,3.6333781917259245,-35.64453125,-51.26953125,-32.71484375,Focusing
1746196970.1241875,0.23658520918667314,-35.15625,-3.90625,-41.50390625,Focusing
1746196970.1280937,-5.406568148192989,-30.2734375,-24.4140625,-37.109375,Focusing
1746196970.132125,4.4045418258422115,-23.92578125,-53.22265625,-36.1328125,Focusing
1746196970.1360312,3.716326962742725,-27.34375,-43.45703125,-34.1796875,Focusing
1746196970.1399374,4.618613152670475,-26.3671875,-24.90234375,-26.3671875,Focusing
1746196970.1438437,7.274030424087599,-11.23046875,-31.25,-24.4140625,Focusing
1746196970.14775,8.267940183255853,-4.8828125,-44.43359375,-34.66796875,Focusing
1746196970.1516562,3.5022338936022095,-17.08984375,-30.2734375,-42.48046875,Focusing
1746196970.1555624,-6.771449960834156,-19.53125,-6.8359375,-31.25,Focusing
1746196970.1594687,-16.642400290877198,-13.18359375,-9.27734375,-29.296875,Focusing
1746196970.163375,-19.365226684460772,-17.08984375,-41.50390625,-26.85546875,Focusing
1746196970.1672812,-13.64937667637219,-23.92578125,-16.11328125,-32.71484375,Focusing
1746196970.1711874,-7.708749526508402,-18.06640625,52.734375,-51.7578125,Focusing
1746196970.1750937,-7.320286376662283,-1.953125,1.953125,-16.11328125,Focusing
1746196970.175125,-3.8306760920609744,1.953125,-6.34765625,0.48828125,Focusing
1746196970.1790311,0.9827511186499827,-11.71875,20.5078125,-33.203125,Focusing
1746196970.1829374,4.491230678795208,-15.625,11.23046875,-49.31640625,Focusing
1746196970.1868436,5.083700337315888,-13.18359375,-2.44140625,-36.62109375,Focusing
1746196970.19075,3.4016115431492255,-15.13671875,-28.80859375,-20.01953125,Focusing
1746196970.1946561,1.6957345572656202,-22.94921875,-42.48046875,-28.3203125,Focusing
1746196970.1985624,1.8560352391379111,-19.04296875,-44.43359375,-35.64453125,Focusing
1746196970.2024686,4.040207625948494,-15.625,-62.5,-22.4609375,Focusing
1746196970.206375,-10.615408678350217,-19.04296875,-36.62109375,-15.625,Focusing
1746196970.2102811,-9.541689303535044,-25.87890625,-11.71875,-24.90234375,Focusing
1746196970.2141874,-3.450062841684926,-33.203125,-67.3828125,-24.4140625,Focusing
1746196970.2180936,3.0531716794202843,-27.83203125,-108.88671875,-6.8359375,Focusing
1746196970.220125,5.74644109444534,-29.78515625,-70.3125,-10.7421875,Focusing
1746196970.2240312,4.552073653357871,-34.66796875,-17.578125,-36.1328125,Focusing
1746196970.2279375,2.724062546396482,-24.90234375,-41.9921875,-20.5078125,Focusing
1746196970.2318437,2.56932465955315,-21.97265625,-46.38671875,-9.765625,Focusing
1746196970.23575,3.104046734555004,-30.2734375,-52.24609375,-13.18359375,Focusing
1746196970.2396562,2.951463305437759,-33.203125,-89.84375,-22.94921875,Focusing
1746196970.2435625,19.80446248388637,-35.64453125,-70.80078125,-33.203125,Focusing
1746196970.2474687,16.885165374970455,-33.69140625,-60.546875,-19.04296875,Focusing
1746196970.251375,10.61317234036207,-29.78515625,-53.7109375,0.0,Focusing
1746196970.2552812,3.4388585123509756,-35.64453125,10.25390625,-22.4609375,Focusing
1746196970.2591875,-2.655174721568457,-34.1796875,-2.9296875,-60.05859375,Focusing
1746196970.2630937,-7.767668398613949,-30.2734375,-39.0625,-58.10546875,Focusing
1746196970.265125,-12.582417565844978,-26.85546875,-12.20703125,-56.15234375,Focusing
1746196970.2690313,-16.485833146545275,-25.87890625,-6.8359375,-51.7578125,Focusing
1746196970.2729375,-18.719962042687165,-25.87890625,-44.921875,-47.36328125,Focusing
1746196970.2768438,-20.551714033292974,-24.4140625,-53.7109375,-58.10546875,Focusing
1746196970.28075,0.7230093087419363,-30.76171875,-57.6171875,-59.08203125,Focusing
1746196970.2846563,-4.673095403947244,-35.64453125,-62.01171875,-47.36328125,Focusing
1746196970.2885625,-2.0199777990338816,-31.73828125,-58.59375,-36.1328125,Focusing
1746196970.2924688,5.9697365898977495,-25.87890625,-63.96484375,-20.01953125,Focusing
1746196970.296375,12.962854986819266,-28.3203125,-37.109375,-39.0625,Focusing
1746196970.3002813,12.79460018053733,-38.57421875,-71.2890625,-54.19921875,Focusing
1746196970.3041875,3.2696955649645787,-47.36328125,-108.88671875,-54.19921875,Focusing
1746196970.3080938,-11.660084948564347,-40.0390625,-83.984375,-62.01171875,Focusing
1746196970.310125,-23.692321468957033,-26.85546875,-56.15234375,-70.3125,Focusing
1746196970.3140314,-26.35935534632,-12.6953125,-81.54296875,-57.6171875,Focusing
1746196970.3179376,6.325355879543864,-15.13671875,-104.00390625,-39.0625,Focusing
1746196970.3218439,-4.855359887454114,-30.2734375,-67.87109375,-62.98828125,Focusing
1746196970.32575,-7.962820752504484,-27.83203125,-56.15234375,-68.359375,Focusing
1746196970.3296564,-2.145759336938383,-23.92578125,-60.546875,-43.45703125,Focusing
1746196970.3335626,6.552931847724551,-24.4140625,-64.94140625,-20.99609375,Focusing
1746196970.3374689,9.911142993190552,-28.3203125,-51.7578125,-19.53125,Focusing
1746196970.341375,3.8614753768405308,-29.296875,15.625,-44.921875,Focusing
1746196970.3452814,-8.524531019633685,-18.5546875,-16.6015625,-46.38671875,Focusing
1746196970.3491876,-19.23337448885222,-12.20703125,-33.203125,-33.69140625,Focusing
1746196970.3530939,-21.395923461340075,-11.71875,-2.44140625,-37.109375,Focusing
1746196970.370125,2.841489167607577,-17.08984375,-34.66796875,-47.8515625,Focusing
1746196970.3740313,-2.4046136209478277,-19.04296875,-56.640625,-38.57421875,Focusing
1746196970.3779376,-2.2025745174412634,-13.671875,-11.71875,-32.2265625,Focusing
1746196970.3818438,2.624952944912465,-17.08984375,34.1796875,-39.0625,Focusing
1746196970.38575,6.941661028475835,-19.53125,6.34765625,-43.45703125,Focusing
1746196970.3896563,5.2455980138698095,-10.7421875,-45.41015625,-21.97265625,Focusing
1746196970.3935626,-2.729732218172927,-11.71875,-30.2734375,-10.7421875,Focusing
1746196970.3974688,-10.979369358032258,-12.20703125,23.92578125,-32.2265625,Focusing
1746196970.401375,-13.483124797665653,-6.8359375,2.9296875,-29.296875,Focusing
1746196970.4052813,-10.863599572045473,-17.08984375,-39.55078125,-17.08984375,Focusing
1746196970.4091876,10.684733763782873,-20.01953125,-22.4609375,-28.3203125,Focusing
1746196970.4130938,1.8693294433731893,-20.01953125,24.4140625,-62.01171875,Focusing
1746196970.415125,0.0492745818081346,-24.4140625,-13.18359375,-59.5703125,Focusing
1746196970.4190311,3.8503590355351776,-23.4375,-29.78515625,-35.15625,Focusing
1746196970.4229374,7.570816695272299,-17.578125,6.8359375,-33.69140625,Focusing
1746196970.4268436,5.7283003063636215,-23.92578125,-9.765625,-39.55078125,Focusing
1746196970.43075,-3.0460523066588223,-33.69140625,-48.33984375,-42.48046875,Focusing
1746196970.4346561,-15.484162247422233,-27.34375,-59.5703125,-56.640625,Focusing
1746196970.4385624,-26.17532239907713,-25.390625,-47.36328125,-49.8046875,Focusing
1746196970.4424686,-30.768671650717238,-25.87890625,-41.50390625,-28.80859375,Focusing
1746196970.446375,0.06569494701350465,-21.97265625,-55.17578125,-22.4609375,Focusing
1746196970.4502811,-3.055093220330157,-20.01953125,-79.1015625,-11.23046875,Focusing
1746196970.4541874,-4.746776399386889,-17.08984375,-60.546875,3.41796875,Focusing
1746196970.4580936,-5.522799799017562,-20.5078125,-11.71875,-16.6015625,Focusing
1746196970.460125,-4.457423041314939,-20.99609375,-54.19921875,-5.859375,Focusing
1746196970.4640312,-0.3065861360969535,-19.53125,-80.56640625,-0.48828125,Focusing
1746196970.4679375,5.694862569326588,-22.94921875,-44.921875,-16.11328125,Focusing
1746196970.4718437,9.336729409122732,-21.484375,-42.96875,-5.859375,Focusing
1746196970.47575,7.094197617658125,-17.578125,-88.37890625,2.9296875,Focusing
1746196970.4796562,0.1768734262379965,-15.13671875,-98.6328125,1.953125,Focusing
1746196970.4835625,5.938632776421475,-23.4375,-58.10546875,9.765625,Focusing
1746196970.4874687,5.306903588834562,-35.64453125,-51.26953125,2.44140625,Focusing
1746196970.491375,0.7634432797479072,-33.203125,-78.61328125,-16.11328125,Focusing
1746196970.4952812,-5.537899232764044,-27.83203125,-60.05859375,-12.6953125,Focusing
1746196970.4991875,-8.634491692057118,-25.390625,-8.30078125,-20.5078125,Focusing
1746196970.5030937,-5.273081466227335,-21.97265625,-32.2265625,-18.06640625,Focusing
1746196970.505125,2.269667327005564,-29.296875,-106.93359375,-6.8359375,Focusing
1746196970.5090313,7.763632040768069,-34.1796875,-87.890625,-5.37109375,Focusing
1746196970.5129375,6.892837722345433,-32.2265625,-28.3203125,-1.46484375,Focusing
1746196970.5168438,0.7130563506273049,-42.48046875,-51.7578125,-1.46484375,Focusing
1746196970.52075,8.086684170327132,-48.828125,-74.70703125,-7.8125,Focusing
1746196970.5246563,0.3918007269119883,-38.0859375,-62.01171875,-7.32421875,Focusing
1746196970.5285625,-3.0253637109427274,-36.62109375,-53.7109375,-10.25390625,Focusing
1746196970.5324688,0.1196685252038705,-41.015625,-58.59375,-21.97265625,Focusing
1746196970.536375,5.1948306174947305,-37.59765625,-87.890625,-9.765625,Focusing
1746196970.5402813,4.645791425097947,-31.25,-55.6640625,16.6015625,Focusing
1746196970.5441875,-3.784340472009056,-30.2734375,-4.8828125,-11.23046875,Focusing
1746196970.5480938,-13.886744531403316,-35.15625,-60.05859375,-40.52734375,Focusing
1746196970.550125,-17.28966722865446,-25.87890625,-35.64453125,-22.94921875,Focusing
1746196970.5540311,-12.441755516197539,-10.7421875,16.6015625,-19.04296875,Focusing
1746196970.5579374,7.646109155391116,-14.6484375,-15.625,-38.57421875,Focusing
1746196970.5618436,4.0476480828202455,-20.5078125,-48.33984375,-40.0390625,Focusing
1746196970.56575,3.2487433460963615,-15.625,-39.55078125,-26.85546875,Focusing
1746196970.5696561,3.91301860601736,-9.765625,-36.62109375,-21.484375,Focusing
1746196970.5735624,4.090426466710042,-11.71875,-39.55078125,-31.73828125,Focusing
1746196970.5774686,2.151905779963684,-20.99609375,-46.38671875,-27.83203125,Focusing
1746196970.581375,-2.646191508351933,-17.578125,-30.2734375,-20.01953125,Focusing
1746196970.5852811,-9.563475376081726,-13.18359375,9.27734375,-25.390625,Focusing
1746196970.5891874,-16.477279310569557,-20.99609375,3.90625,-39.55078125,Focusing
1746196970.5930936,-21.14786687543608,-23.4375,-28.3203125,-29.296875,Focusing
1746196970.597125,6.416171736796898,-26.85546875,-17.08984375,-20.99609375,Focusing
1746196970.6010313,-1.4159989009218918,-25.87890625,-25.390625,-34.1796875,Focusing
1746196970.6049376,-3.33201310917174,-17.578125,-47.8515625,-34.1796875,Focusing
1746196970.6088438,-0.9258130375687443,-14.16015625,-25.87890625,-41.50390625,Focusing
1746196970.61275,1.3418938136813523,-17.578125,-9.27734375,-45.41015625,Focusing
1746196970.6166563,0.6300138380352109,-23.92578125,-38.57421875,-40.0390625,Focusing
1746196970.6205626,-2.347581496214005,-30.2734375,-55.6640625,-26.3671875,Focusing
1746196970.6244688,-5.786330542215595,-30.76171875,-71.77734375,-15.625,Focusing
1746196970.628375,-9.583467095493305,-19.53125,-55.6640625,-30.2734375,Focusing
1746196970.6322813,-13.823890570045648,-19.04296875,-7.8125,-53.22265625,Focusing
1746196970.6361876,4.469144570290624,-22.94921875,-41.50390625,-37.109375,Focusing
1746196970.6400938,-5.398168072033357,-23.4375,-89.84375,-5.37109375,Focusing
1746196970.640125,-8.767680233718593,-26.3671875,-31.25,-29.78515625,Focusing
1746196970.6440313,-3.9403994084543967,-20.99609375,-13.18359375,-59.5703125,Focusing
1746196970.6479375,4.763606159246834,-11.23046875,-71.77734375,-37.59765625,Focusing
1746196970.6518438,9.69774835195419,-5.37109375,-66.89453125,-31.25,Focusing
1746196970.65575,5.906829964394348,-7.8125,-55.17578125,-36.1328125,Focusing
1746196970.6596563,-4.344673797605992,-17.578125,-55.17578125,-39.55078125,Focusing
1746196970.6635625,-13.188574727040432,-23.92578125,-66.40625,-32.71484375,Focusing
1746196970.6674688,-14.676139962419796,-28.80859375,-89.35546875,-14.6484375,Focusing
1746196970.671375,-9.47271246645991,-27.34375,-47.36328125,-23.92578125,Focusing
1746196970.6752813,-19.64373831633784,-25.87890625,-42.96875,-41.9921875,Focusing
1746196970.6791875,-21.669957171121677,-26.85546875,-70.80078125,-36.62109375,Focusing
1746196970.6830938,-15.018790840224582,-17.578125,-49.8046875,-25.390625,Focusing
1746196970.686125,-3.063605934181016,0.0,-30.76171875,-24.4140625,Focusing
1746196970.6900313,9.280089983313218,0.48828125,-54.19921875,-20.5078125,Focusing
1746196970.6939375,17.738719051860066,-12.6953125,-47.8515625,-3.90625,Focusing
1746196970.6978438,20.2179823390314,-10.25390625,-11.23046875,-13.18359375,Focusing
1746196970.70175,17.679203924241882,-6.34765625,-18.06640625,-17.578125,Focusing
1746196970.7056563,13.177423083912132,-12.20703125,-43.9453125,-2.44140625,Focusing
1746196970.7095625,1.625592688037493,-16.11328125,-57.12890625,23.4375,Focusing
1746196970.7134688,3.945280116247332,-11.23046875,-35.15625,22.4609375,Focusing
1746196970.717375,2.480455490351112,-11.23046875,-24.90234375,-4.39453125,Focusing
1746196970.7212813,-0.9710401638161983,-20.01953125,-0.9765625,4.39453125,Focusing
1746196970.7251875,-3.7287633574061303,-22.94921875,-29.78515625,21.97265625,Focusing
1746196970.7290938,-4.12512896967511,-19.04296875,-35.15625,21.97265625,Focusing
1746196970.730125,-2.120291221367488,-23.4375,-0.48828125,-0.9765625,Focusing
1746196970.7340312,1.176936394797444,-25.87890625,-49.8046875,10.25390625,Focusing
1746196970.7379375,4.342790392693885,-20.99609375,-55.17578125,19.04296875,Focusing
1746196970.7418437,6.264299184874048,-28.80859375,-38.57421875,-6.8359375,Focusing
1746196970.74575,10.487131865589319,-36.1328125,-62.01171875,-13.18359375,Focusing
1746196970.7496562,10.175389751934095,-38.0859375,-63.4765625,7.8125,Focusing
1746196970.7535625,8.480394829594204,-34.66796875,-22.94921875,14.16015625,Focusing
1746196970.7574687,7.023490582952732,-30.76171875,2.9296875,1.46484375,Focusing
1746196970.761375,4.784922206823136,-35.64453125,16.6015625,-18.5546875,Focusing
1746196970.7652812,-0.9509371748601652,-34.66796875,5.859375,-21.97265625,Focusing
1746196970.7691875,-10.285822718190353,-35.15625,-2.44140625,-15.625,Focusing
1746196970.7730937,-18.601047924537593,-41.50390625,13.18359375,-22.94921875,Focusing
1746196970.790125,-20.48004475059355,-43.9453125,4.8828125,-32.2265625,Focusing
1746196970.7940311,-15.676476350471876,-41.9921875,-27.34375,-29.78515625,Focusing
1746196970.7979374,12.950251119734403,-32.71484375,2.44140625,-21.97265625,Focusing
1746196970.8018436,6.667230095772936,-28.80859375,44.43359375,-26.85546875,Focusing
1746196970.80575,4.960337764112765,-33.203125,-19.04296875,-28.80859375,Focusing
1746196970.8096561,7.324294726478669,-36.62109375,-42.96875,-35.64453125,Focusing
1746196970.8135624,8.750526338896819,-44.43359375,5.859375,-50.78125,Focusing
1746196970.8174686,3.700896597576417,-52.734375,14.16015625,-57.12890625,Focusing
1746196970.821375,-8.466394934780908,-51.7578125,-6.8359375,-57.6171875,Focusing
1746196970.8252811,-22.112003149939696,-47.36328125,-24.90234375,-37.59765625,Focusing
1746196970.8291874,-30.183068057791758,-44.921875,6.34765625,-41.9921875,Focusing
1746196970.8330936,-30.356626323969536,-40.52734375,14.6484375,-58.59375,Focusing
1746196970.835125,24.194754848949074,-38.57421875,-22.94921875,-36.62109375,Focusing
1746196970.8390312,17.29821577569477,-42.48046875,-40.0390625,-9.27734375,Focusing
1746196970.8429375,7.829064989754073,-33.69140625,0.48828125,-16.11328125,Focusing
1746196970.8468437,-1.0743219175514298,-33.69140625,13.671875,-54.19921875,Focusing
1746196970.85075,-6.53959159645774,-37.59765625,-48.828125,-64.453125,Focusing
1746196970.8546562,-8.52436345400659,-33.69140625,-58.59375,-49.8046875,Focusing
1746196970.8585625,-9.611689859341737,-32.71484375,-31.73828125,-41.9921875,Focusing
1746196970.8624687,-12.350795737400333,-38.0859375,-39.55078125,-52.734375,Focusing
1746196970.866375,-17.593360716824122,-37.59765625,-62.5,-39.0625,Focusing
1746196970.8702812,-25.074052568551807,-34.1796875,-26.3671875,-33.69140625,Focusing
1746196970.8741875,22.822958738952593,-44.43359375,10.25390625,-45.8984375,Focusing
1746196970.8780937,-4.228213669065838,-46.875,-20.99609375,-43.45703125,Focusing
1746196970.880125,-19.460247296501336,-58.10546875,-66.40625,-54.6875,Focusing
1746196970.8840313,-16.87372833590385,-68.359375,-62.98828125,-68.84765625,Focusing
1746196970.8879375,-2.7116591667478644,-56.640625,-27.83203125,-71.2890625,Focusing
1746196970.8918438,8.930322718287613,-53.22265625,-45.41015625,-88.8671875,Focusing
1746196970.89575,7.4966757380104525,-53.22265625,-56.640625,-97.16796875,Focusing
1746196970.8996563,-5.648104599906532,-43.9453125,-46.38671875,-91.796875,Focusing
1746196970.9035625,-20.356167942048984,-38.57421875,-45.41015625,-67.3828125,Focusing
1746196970.9074688,-29.249951177308446,-38.0859375,-43.45703125,-53.7109375,Focusing
1746196970.911375,5.374615760677045,-34.66796875,-64.94140625,-42.48046875,Focusing
1746196970.9152813,-11.677355679875973,-27.83203125,-46.875,-29.78515625,Focusing
1746196970.9191875,-17.628445781706148,-29.296875,0.48828125,-60.05859375,Focusing
1746196970.9230938,-11.134914951869831,-32.2265625,-36.62109375,-62.98828125,Focusing
1746196970.925125,0.4132457917252168,-32.2265625,-28.80859375,-40.52734375,Focusing
1746196970.9290311,7.347708345376105,-32.2265625,2.44140625,-35.64453125,Focusing
1746196970.9329374,5.9492066925691915,-29.296875,-12.20703125,-38.0859375,Focusing
1746196970.9368436,0.172983685347333,-21.97265625,-53.7109375,-28.80859375,Focusing
1746196970.94075,-4.46080797486934,-19.04296875,-71.77734375,-18.5546875,Focusing
1746196970.9446561,-6.868716042646241,-33.203125,-58.10546875,-15.625,Focusing
1746196970.9485624,-2.2266420057475784,-34.66796875,-48.33984375,-18.5546875,Focusing
1746196970.9524686,-12.00002232955191,-33.69140625,-47.36328125,-11.71875,Focusing
1746196970.956375,-10.79402473756386,-39.55078125,-71.2890625,0.0,Focusing
1746196970.9602811,-0.0021484627629035913,-37.59765625,-18.5546875,-27.83203125,Focusing
1746196970.9641874,11.408719448960824,-33.203125,-11.23046875,-36.1328125,Focusing
1746196970.9680936,13.53717854468266,-21.97265625,-54.19921875,-22.94921875,Focusing
1746196970.970125,4.23080078744573,-28.3203125,0.0,-13.18359375,Focusing
1746196970.9740312,-8.655154152855403,-44.43359375,-0.9765625,-20.5078125,Focusing
1746196970.9779375,-14.936470562249411,-44.43359375,-43.45703125,-22.94921875,Focusing
1746196970.9818437,-12.08400224981969,-39.55078125,-57.12890625,-8.7890625,Focusing
1746196970.98575,6.628767251952155,-50.78125,-48.33984375,-22.4609375,Focusing
1746196970.9896562,0.13528918604494322,-60.05859375,-51.7578125,-42.48046875,Focusing
1746196970.9935625,1.1196390748244482,-52.734375,-46.875,-36.1328125,Focusing
1746196970.9974687,6.0323195465812915,-45.8984375,-65.91796875,-0.48828125,Focusing
1746196971.001375,7.868214149326462,-42.96875,-46.38671875,-2.44140625,Focusing
1746196971.0052812,2.697986758635267,-42.48046875,-23.4375,-30.76171875,Focusing
1746196971.0091875,-6.955137437520719,-42.96875,-50.29296875,-23.4375,Focusing
1746196971.0130937,-15.593483686772345,-45.8984375,-67.3828125,-3.41796875,Focusing
1746196971.016125,-20.68146181044814,-46.875,-31.25,-21.484375,Focusing
1746196971.0200312,-22.91000065634529,-46.38671875,-1.46484375,-54.19921875,Focusing
1746196971.0239375,2.7102425064849207,-33.69140625,-59.5703125,-30.76171875,Focusing
1746196971.0278437,2.0152840168474278,-25.87890625,-55.6640625,-19.53125,Focusing
1746196971.03175,1.116795236663929,-22.4609375,-40.0390625,-11.71875,Focusing
1746196971.0356562,0.45474884910514035,-14.6484375,-49.31640625,-10.25390625,Focusing
1746196971.0395625,0.15565895607276303,-20.01953125,-61.03515625,-20.01953125,Focusing
1746196971.0434687,-0.3628809348442523,-19.53125,-45.41015625,-8.7890625,Focusing
1746196971.047375,-1.5383720699126542,-16.11328125,18.5546875,-8.30078125,Focusing
1746196971.0512812,-2.690299678638869,-18.06640625,-8.7890625,-7.32421875,Focusing
1746196971.0551875,-2.8798445363556304,-22.4609375,-69.82421875,1.953125,Focusing
1746196971.0590937,-2.718736107750507,-20.99609375,-44.921875,-8.30078125,Focusing
1746196971.061125,-3.8698285527740417,-15.625,-28.3203125,-14.16015625,Focusing
1746196971.0650313,-0.29885233203541617,-19.04296875,-48.828125,9.765625,Focusing
1746196971.0689375,1.9865424255258226,-25.87890625,-51.26953125,22.4609375,Focusing
1746196971.0728438,1.6880545779554303,-30.76171875,-32.71484375,0.48828125,Focusing
1746196971.07675,-0.15708564437949946,-20.01953125,-22.94921875,8.30078125,Focusing
1746196971.0806563,-1.2262225004340799,-16.6015625,-30.2734375,19.53125,Focusing
1746196971.0845625,-0.058517568074673676,-21.484375,-26.3671875,14.16015625,Focusing
1746196971.0884688,2.788362595901134,-23.4375,-20.99609375,12.6953125,Focusing
1746196971.092375,5.1915507255254525,-30.76171875,16.11328125,0.0,Focusing
1746196971.0962813,5.159999017247305,-27.83203125,-11.71875,4.8828125,Focusing
1746196971.1001875,15.353553188492292,-16.11328125,-44.921875,14.16015625,Focusing
1746196971.1040938,15.689525684138413,-11.23046875,-5.37109375,0.0,Focusing
1746196971.105125,10.072665659699087,-12.6953125,-7.32421875,-13.18359375,Focusing
1746196971.1090312,1.690959026855019,-18.5546875,-42.48046875,0.48828125,Focusing
1746196971.1129375,-6.104171250745585,-29.296875,-26.85546875,-7.8125,Focusing
1746196971.1168437,-11.544270518806988,-33.69140625,-21.484375,-24.4140625,Focusing
1746196971.12075,-13.545310931963513,-32.2265625,-21.484375,-23.4375,Focusing
1746196971.1246562,-11.425465243928722,-32.2265625,-46.38671875,-36.62109375,Focusing
1746196971.1285625,-6.9538556310551325,-36.1328125,-50.29296875,-30.2734375,Focusing
1746196971.1324687,-4.707168148046851,-39.0625,-22.94921875,-20.99609375,Focusing
1746196971.136375,17.714067886889225,-28.3203125,-46.38671875,-20.5078125,Focusing
1746196971.1402812,13.599289812905802,-26.3671875,-66.89453125,0.9765625,Focusing
1746196971.1441875,5.239059684462987,-33.69140625,-45.8984375,-0.48828125,Focusing
1746196971.1480937,-3.0002120335807305,-35.15625,8.30078125,-29.296875,Focusing
1746196971.150125,-7.98802156214294,-39.0625,-31.25,-34.66796875,Focusing
1746196971.1540313,-9.832380920940423,-34.1796875,-40.0390625,-36.1328125,Focusing
1746196971.1579375,-9.826959666590838,-36.62109375,-4.8828125,-63.96484375,Focusing
1746196971.1618438,-8.274062199832848,-42.48046875,-10.7421875,-41.9921875,Focusing
1746196971.16575,-5.988719485502237,-49.31640625,-28.80859375,-24.90234375,Focusing
1746196971.1696563,-6.292029345646441,-41.015625,-51.7578125,-45.41015625,Focusing
1746196971.1735625,-4.5444861823822364,-30.76171875,-39.55078125,-34.66796875,Focusing
1746196971.1774688,-8.823439751706552,-39.0625,-32.2265625,-52.24609375,Focusing
1746196971.181375,-7.847854544016862,-41.50390625,-31.73828125,-32.2265625,Focusing
1746196971.1852813,-3.1676430909896,-40.52734375,-48.33984375,10.25390625,Focusing
1746196971.1891875,2.4111436958259844,-27.83203125,-37.59765625,12.6953125,Focusing
1746196971.1930938,6.6230951482137215,-16.6015625,26.85546875,-13.671875,Focusing
1746196971.210125,8.008841839646188,-18.06640625,-5.37109375,-28.3203125,Focusing
1746196971.2140312,5.952667329468625,-21.97265625,-26.3671875,-6.8359375,Focusing
1746196971.2179375,1.424202341605742,-17.578125,-5.859375,-13.671875,Focusing
1746196971.2218437,-2.881573563264368,-15.625,-22.94921875,-0.48828125,Focusing
1746196971.22575,-32.4164271776541,-23.4375,-44.921875,40.0390625,Focusing
1746196971.2296562,-20.88028762583849,-20.5078125,-35.64453125,58.10546875,Focusing
1746196971.2335625,-14.717538913896135,-16.6015625,-7.32421875,41.9921875,Focusing
1746196971.2374687,-13.401352567708841,-14.6484375,-17.08984375,49.31640625,Focusing
1746196971.241375,-10.115507724177633,-12.20703125,-69.3359375,92.28515625,Focusing
1746196971.2452812,2.1660909625558986,-20.5078125,-77.1484375,120.1171875,Focusing
1746196971.2491875,22.840200837099786,-20.5078125,-0.48828125,116.69921875,Focusing
1746196971.2530937,43.13730149152576,-17.578125,10.7421875,122.0703125,Focusing
1746196971.255125,54.95022788427627,-19.04296875,-55.6640625,145.01953125,Focusing
1746196971.2590313,58.04485179685432,-14.6484375,-41.50390625,152.83203125,Focusing
1746196971.2629375,-17.156407154408498,-16.11328125,1.953125,136.71875,Focusing
1746196971.2668438,10.26863308619528,-16.6015625,-19.04296875,136.71875,Focusing
1746196971.27075,18.55040916181855,-17.578125,-23.4375,151.3671875,Focusing
1746196971.2746563,6.057034244377007,-21.484375,-23.4375,162.59765625,Focusing
1746196971.2785625,-13.65890013009681,-26.3671875,-26.85546875,163.57421875,Focusing
1746196971.2824688,-21.356569026238844,-15.625,-16.6015625,145.01953125,Focusing
1746196971.286375,-7.40563253277611,-15.625,-23.4375,158.203125,Focusing
1746196971.2902813,19.896121728897242,-24.90234375,-1.46484375,172.8515625,Focusing
1746196971.2941875,42.04440652110844,-28.3203125,74.70703125,144.53125,Focusing
1746196971.2980938,47.99913871150588,-37.109375,50.78125,146.484375,Focusing
1746196971.300125,-8.172955025708887,-38.0859375,10.7421875,145.99609375,Focusing
